 50  7 14
WAVELENGTH(A)= 
    61.099
 7 14 t 
excit   
     9.120     13.700     22.800     45.600     91.200    228.000    456.000    684.000    912.000   1370.000   2280.000   4560.000   9120.000  13700.000 
  0.1000E+11  0.3850E-20  0.5240E-17  0.1550E-14  0.9620E-13  0.6580E-12  0.1840E-11  0.2480E-11  0.2720E-11  0.2820E-11  0.2910E-11  0.2920E-11  0.2780E-11  0.2530E-11  0.2340E-11
  0.1000E+12  0.3820E-20  0.5190E-17  0.1530E-14  0.9410E-13  0.6190E-12  0.1610E-11  0.2100E-11  0.2260E-11  0.2340E-11  0.2400E-11  0.2400E-11  0.2300E-11  0.2100E-11  0.1970E-11
  0.1000E+13  0.3670E-20  0.4850E-17  0.1390E-14  0.8030E-13  0.4340E-12  0.8660E-12  0.1020E-11  0.1070E-11  0.1100E-11  0.1120E-11  0.1120E-11  0.1100E-11  0.1050E-11  0.1010E-11
  0.1000E+14  0.2510E-20  0.2650E-17  0.6090E-15  0.2700E-13  0.1120E-12  0.2210E-12  0.2730E-12  0.2910E-12  0.3010E-12  0.3090E-12  0.3110E-12  0.3030E-12  0.2870E-12  0.2750E-12
  0.1000E+15  0.1410E-20  0.1230E-17  0.2410E-15  0.1040E-13  0.5630E-13  0.1390E-12  0.1820E-12  0.1970E-12  0.2040E-12  0.2090E-12  0.2090E-12  0.1990E-12  0.1800E-12  0.1670E-12
  0.1000E+16  0.1240E-20  0.1050E-17  0.2010E-15  0.8800E-14  0.5120E-13  0.1310E-12  0.1730E-12  0.1880E-12  0.1940E-12  0.1990E-12  0.1990E-12  0.1880E-12  0.1700E-12  0.1570E-12
  0.1000E+17  0.1230E-20  0.1030E-17  0.1960E-15  0.8640E-14  0.5070E-13  0.1310E-12  0.1720E-12  0.1870E-12  0.1930E-12  0.1980E-12  0.1980E-12  0.1870E-12  0.1690E-12  0.1560E-12
WAVELENGTH(A)= 
    61.391
 7 14 t 
excit   
     9.120     13.700     22.800     45.600     91.200    228.000    456.000    684.000    912.000   1370.000   2280.000   4560.000   9120.000  13700.000 
  0.1000E+11  0.5740E-20  0.7590E-17  0.2180E-14  0.1320E-12  0.8970E-12  0.2480E-11  0.3330E-11  0.3640E-11  0.3790E-11  0.3920E-11  0.3920E-11  0.3740E-11  0.3400E-11  0.3150E-11
  0.1000E+12  0.5690E-20  0.7490E-17  0.2140E-14  0.1290E-12  0.8370E-12  0.2130E-11  0.2750E-11  0.2960E-11  0.3050E-11  0.3140E-11  0.3130E-11  0.3000E-11  0.2770E-11  0.2590E-11
  0.1000E+13  0.5320E-20  0.6830E-17  0.1900E-14  0.1070E-12  0.5510E-12  0.1020E-11  0.1160E-11  0.1210E-11  0.1230E-11  0.1250E-11  0.1250E-11  0.1240E-11  0.1200E-11  0.1160E-11
  0.1000E+14  0.2980E-20  0.3080E-17  0.6920E-15  0.2900E-13  0.1020E-12  0.1690E-12  0.1980E-12  0.2090E-12  0.2140E-12  0.2200E-12  0.2220E-12  0.2190E-12  0.2110E-12  0.2060E-12
  0.1000E+15  0.1030E-20  0.8730E-18  0.1680E-15  0.6920E-14  0.3420E-13  0.8010E-13  0.1030E-12  0.1120E-12  0.1160E-12  0.1190E-12  0.1190E-12  0.1130E-12  0.1030E-12  0.9600E-13
  0.1000E+16  0.7420E-21  0.6040E-18  0.1130E-15  0.4870E-14  0.2830E-13  0.7230E-13  0.9500E-13  0.1030E-12  0.1070E-12  0.1100E-12  0.1090E-12  0.1040E-12  0.9340E-13  0.8640E-13
  0.1000E+17  0.7120E-21  0.5770E-18  0.1070E-15  0.4670E-14  0.2770E-13  0.7150E-13  0.9420E-13  0.1020E-12  0.1060E-12  0.1090E-12  0.1080E-12  0.1030E-12  0.9250E-13  0.8540E-13
WAVELENGTH(A)= 
    61.486
 7 14 t 
excit   
     9.120     13.700     22.800     45.600     91.200    228.000    456.000    684.000    912.000   1370.000   2280.000   4560.000   9120.000  13700.000 
  0.1000E+11  0.3070E-19  0.4000E-16  0.1140E-13  0.6860E-12  0.4650E-11  0.1280E-10  0.1720E-10  0.1880E-10  0.1960E-10  0.2020E-10  0.2020E-10  0.1920E-10  0.1750E-10  0.1620E-10
  0.1000E+12  0.3040E-19  0.3950E-16  0.1120E-13  0.6680E-12  0.4330E-11  0.1100E-10  0.1420E-10  0.1530E-10  0.1580E-10  0.1620E-10  0.1620E-10  0.1540E-10  0.1420E-10  0.1330E-10
  0.1000E+13  0.2840E-19  0.3600E-16  0.9910E-14  0.5540E-12  0.2850E-11  0.5250E-11  0.6000E-11  0.6230E-11  0.6340E-11  0.6430E-11  0.6460E-11  0.6360E-11  0.6160E-11  0.5980E-11
  0.1000E+14  0.1600E-19  0.1630E-16  0.3620E-14  0.1510E-12  0.5300E-12  0.8830E-12  0.1040E-11  0.1090E-11  0.1120E-11  0.1150E-11  0.1160E-11  0.1140E-11  0.1100E-11  0.1070E-11
  0.1000E+15  0.5600E-20  0.4690E-17  0.8940E-15  0.3660E-13  0.1810E-12  0.4240E-12  0.5470E-12  0.5910E-12  0.6110E-12  0.6270E-12  0.6260E-12  0.5950E-12  0.5430E-12  0.5060E-12
  0.1000E+16  0.4080E-20  0.3280E-17  0.6060E-15  0.2600E-13  0.1510E-12  0.3840E-12  0.5030E-12  0.5460E-12  0.5650E-12  0.5800E-12  0.5790E-12  0.5470E-12  0.4940E-12  0.4570E-12
  0.1000E+17  0.3920E-20  0.3140E-17  0.5780E-15  0.2500E-13  0.1480E-12  0.3800E-12  0.4990E-12  0.5420E-12  0.5610E-12  0.5760E-12  0.5740E-12  0.5420E-12  0.4890E-12  0.4520E-12
WAVELENGTH(A)= 
    61.504
 7 14 t 
excit   
     9.120     13.700     22.800     45.600     91.200    228.000    456.000    684.000    912.000   1370.000   2280.000   4560.000   9120.000  13700.000 
  0.1000E+11  0.1250E-19  0.1630E-16  0.4600E-14  0.2780E-12  0.1880E-11  0.5200E-11  0.6990E-11  0.7640E-11  0.7940E-11  0.8180E-11  0.8190E-11  0.7810E-11  0.7080E-11  0.6590E-11
  0.1000E+12  0.1240E-19  0.1610E-16  0.4540E-14  0.2710E-12  0.1770E-11  0.4520E-11  0.5860E-11  0.6320E-11  0.6520E-11  0.6680E-11  0.6680E-11  0.6400E-11  0.5870E-11  0.5520E-11
  0.1000E+13  0.1170E-19  0.1480E-16  0.4050E-14  0.2270E-12  0.1190E-11  0.2260E-11  0.2610E-11  0.2730E-11  0.2780E-11  0.2820E-11  0.2840E-11  0.2800E-11  0.2690E-11  0.2610E-11
  0.1000E+14  0.7050E-20  0.7170E-17  0.1580E-14  0.6660E-13  0.2510E-12  0.4500E-12  0.5420E-12  0.5760E-12  0.5920E-12  0.6070E-12  0.6120E-12  0.6010E-12  0.5730E-12  0.5560E-12
  0.1000E+15  0.3090E-20  0.2570E-17  0.4860E-15  0.2010E-13  0.1040E-12  0.2500E-12  0.3250E-12  0.3510E-12  0.3630E-12  0.3730E-12  0.3720E-12  0.3540E-12  0.3210E-12  0.3000E-12
  0.1000E+16  0.2500E-20  0.2010E-17  0.3690E-15  0.1580E-13  0.9110E-13  0.2320E-12  0.3050E-12  0.3310E-12  0.3420E-12  0.3510E-12  0.3500E-12  0.3320E-12  0.2980E-12  0.2760E-12
  0.1000E+17  0.2440E-20  0.1950E-17  0.3580E-15  0.1540E-13  0.8990E-13  0.2300E-12  0.3030E-12  0.3290E-12  0.3400E-12  0.3490E-12  0.3480E-12  0.3290E-12  0.2960E-12  0.2740E-12
WAVELENGTH(A)= 
    61.618
 7 14 t 
excit   
     9.120     13.700     22.800     45.600     91.200    228.000    456.000    684.000    912.000   1370.000   2280.000   4560.000   9120.000  13700.000 
  0.1000E+11  0.2440E-20  0.3130E-17  0.8800E-15  0.5260E-13  0.3580E-12  0.1000E-11  0.1350E-11  0.1480E-11  0.1550E-11  0.1600E-11  0.1590E-11  0.1520E-11  0.1370E-11  0.1270E-11
  0.1000E+12  0.2460E-20  0.3150E-17  0.8810E-15  0.5250E-13  0.3550E-12  0.9700E-12  0.1290E-11  0.1410E-11  0.1470E-11  0.1520E-11  0.1520E-11  0.1450E-11  0.1320E-11  0.1230E-11
  0.1000E+13  0.2430E-20  0.3020E-17  0.8200E-15  0.4620E-13  0.2630E-12  0.5620E-12  0.6840E-12  0.7280E-12  0.7530E-12  0.7740E-12  0.7820E-12  0.7740E-12  0.7410E-12  0.7150E-12
  0.1000E+14  0.1790E-20  0.1770E-17  0.3850E-15  0.1670E-13  0.7280E-13  0.1490E-12  0.1870E-12  0.2000E-12  0.2080E-12  0.2140E-12  0.2160E-12  0.2120E-12  0.2010E-12  0.1940E-12
  0.1000E+15  0.1120E-20  0.9140E-18  0.1700E-15  0.7120E-14  0.3870E-13  0.9580E-13  0.1250E-12  0.1360E-12  0.1410E-12  0.1450E-12  0.1450E-12  0.1380E-12  0.1250E-12  0.1170E-12
  0.1000E+16  0.1010E-20  0.8030E-18  0.1460E-15  0.6170E-14  0.3550E-13  0.9080E-13  0.1200E-12  0.1300E-12  0.1350E-12  0.1390E-12  0.1380E-12  0.1310E-12  0.1180E-12  0.1090E-12
  0.1000E+17  0.1000E-20  0.7920E-18  0.1440E-15  0.6080E-14  0.3520E-13  0.9030E-13  0.1190E-12  0.1290E-12  0.1340E-12  0.1380E-12  0.1370E-12  0.1300E-12  0.1170E-12  0.1080E-12
WAVELENGTH(A)= 
    61.641
 7 14 t 
excit   
     9.120     13.700     22.800     45.600     91.200    228.000    456.000    684.000    912.000   1370.000   2280.000   4560.000   9120.000  13700.000 
  0.1000E+11  0.4350E-19  0.5580E-16  0.1560E-13  0.9330E-12  0.6280E-11  0.1730E-10  0.2320E-10  0.2530E-10  0.2630E-10  0.2700E-10  0.2710E-10  0.2590E-10  0.2350E-10  0.2190E-10
  0.1000E+12  0.4310E-19  0.5510E-16  0.1540E-13  0.9090E-12  0.5860E-11  0.1490E-10  0.1920E-10  0.2060E-10  0.2130E-10  0.2170E-10  0.2170E-10  0.2090E-10  0.1920E-10  0.1800E-10
  0.1000E+13  0.4040E-19  0.5030E-16  0.1360E-13  0.7540E-12  0.3870E-11  0.7140E-11  0.8160E-11  0.8480E-11  0.8620E-11  0.8720E-11  0.8770E-11  0.8660E-11  0.8370E-11  0.8140E-11
  0.1000E+14  0.2290E-19  0.2290E-16  0.5020E-14  0.2070E-12  0.7260E-12  0.1220E-11  0.1430E-11  0.1510E-11  0.1540E-11  0.1580E-11  0.1590E-11  0.1570E-11  0.1520E-11  0.1480E-11
  0.1000E+15  0.8120E-20  0.6670E-17  0.1250E-14  0.5080E-13  0.2500E-12  0.5870E-12  0.7570E-12  0.8180E-12  0.8460E-12  0.8660E-12  0.8650E-12  0.8250E-12  0.7520E-12  0.7020E-12
  0.1000E+16  0.5950E-20  0.4700E-17  0.8560E-15  0.3630E-13  0.2090E-12  0.5320E-12  0.6970E-12  0.7570E-12  0.7830E-12  0.8020E-12  0.8000E-12  0.7580E-12  0.6840E-12  0.6330E-12
  0.1000E+17  0.5730E-20  0.4500E-17  0.8170E-15  0.3490E-13  0.2050E-12  0.5270E-12  0.6910E-12  0.7510E-12  0.7770E-12  0.7950E-12  0.7940E-12  0.7520E-12  0.6770E-12  0.6270E-12
WAVELENGTH(A)= 
    61.683
 7 14 t 
excit   
     9.120     13.700     22.800     45.600     91.200    228.000    456.000    684.000    912.000   1370.000   2280.000   4560.000   9120.000  13700.000 
  0.1000E+11  0.1340E-19  0.1710E-16  0.4770E-14  0.2840E-12  0.1910E-11  0.5220E-11  0.7000E-11  0.7660E-11  0.7980E-11  0.8210E-11  0.8240E-11  0.7860E-11  0.7130E-11  0.6610E-11
  0.1000E+12  0.1320E-19  0.1690E-16  0.4690E-14  0.2760E-12  0.1780E-11  0.4480E-11  0.5760E-11  0.6210E-11  0.6420E-11  0.6560E-11  0.6570E-11  0.6300E-11  0.5790E-11  0.5430E-11
  0.1000E+13  0.1230E-19  0.1530E-16  0.4150E-14  0.2280E-12  0.1170E-11  0.2120E-11  0.2410E-11  0.2500E-11  0.2540E-11  0.2580E-11  0.2590E-11  0.2560E-11  0.2470E-11  0.2400E-11
  0.1000E+14  0.6850E-20  0.6860E-17  0.1500E-14  0.6130E-13  0.2100E-12  0.3410E-12  0.3970E-12  0.4180E-12  0.4290E-12  0.4380E-12  0.4420E-12  0.4360E-12  0.4220E-12  0.4110E-12
  0.1000E+15  0.2270E-20  0.1870E-17  0.3500E-15  0.1410E-13  0.6820E-13  0.1570E-12  0.2030E-12  0.2190E-12  0.2260E-12  0.2320E-12  0.2310E-12  0.2210E-12  0.2010E-12  0.1870E-12
  0.1000E+16  0.1600E-20  0.1260E-17  0.2290E-15  0.9710E-14  0.5590E-13  0.1410E-12  0.1850E-12  0.2010E-12  0.2080E-12  0.2130E-12  0.2130E-12  0.2020E-12  0.1820E-12  0.1680E-12
  0.1000E+17  0.1530E-20  0.1200E-17  0.2170E-15  0.9280E-14  0.5470E-13  0.1400E-12  0.1840E-12  0.1990E-12  0.2070E-12  0.2120E-12  0.2110E-12  0.2000E-12  0.1800E-12  0.1660E-12
WAVELENGTH(A)= 
    61.805
 7 14 t 
excit   
     9.120     13.700     22.800     45.600     91.200    228.000    456.000    684.000    912.000   1370.000   2280.000   4560.000   9120.000  13700.000 
  0.1000E+11  0.2780E-20  0.3500E-17  0.9640E-15  0.5690E-13  0.3810E-12  0.1050E-11  0.1410E-11  0.1540E-11  0.1600E-11  0.1650E-11  0.1650E-11  0.1570E-11  0.1430E-11  0.1320E-11
  0.1000E+12  0.2770E-20  0.3470E-17  0.9540E-15  0.5580E-13  0.3620E-12  0.9360E-12  0.1220E-11  0.1310E-11  0.1360E-11  0.1390E-11  0.1390E-11  0.1330E-11  0.1220E-11  0.1140E-11
  0.1000E+13  0.2690E-20  0.3270E-17  0.8730E-15  0.4820E-13  0.2600E-12  0.5230E-12  0.6220E-12  0.6550E-12  0.6720E-12  0.6830E-12  0.6860E-12  0.6730E-12  0.6400E-12  0.6140E-12
  0.1000E+14  0.1920E-20  0.1870E-17  0.4000E-15  0.1700E-13  0.7110E-13  0.1420E-12  0.1750E-12  0.1880E-12  0.1940E-12  0.1990E-12  0.2010E-12  0.1960E-12  0.1850E-12  0.1770E-12
  0.1000E+15  0.1160E-20  0.9270E-18  0.1700E-15  0.6990E-14  0.3730E-13  0.9130E-13  0.1190E-12  0.1290E-12  0.1330E-12  0.1370E-12  0.1360E-12  0.1300E-12  0.1170E-12  0.1090E-12
  0.1000E+16  0.1040E-20  0.8070E-18  0.1440E-15  0.6010E-14  0.3420E-13  0.8660E-13  0.1130E-12  0.1230E-12  0.1270E-12  0.1310E-12  0.1300E-12  0.1230E-12  0.1110E-12  0.1020E-12
  0.1000E+17  0.1030E-20  0.7940E-18  0.1420E-15  0.5910E-14  0.3390E-13  0.8610E-13  0.1130E-12  0.1220E-12  0.1270E-12  0.1300E-12  0.1290E-12  0.1220E-12  0.1100E-12  0.1020E-12
WAVELENGTH(A)= 
    61.820
 7 14 t 
excit   
     9.120     13.700     22.800     45.600     91.200    228.000    456.000    684.000    912.000   1370.000   2280.000   4560.000   9120.000  13700.000 
  0.1000E+11  0.5260E-19  0.6600E-16  0.1820E-13  0.1070E-11  0.7160E-11  0.1960E-10  0.2630E-10  0.2870E-10  0.2990E-10  0.3090E-10  0.3080E-10  0.2950E-10  0.2670E-10  0.2470E-10
  0.1000E+12  0.5210E-19  0.6520E-16  0.1790E-13  0.1040E-11  0.6680E-11  0.1690E-10  0.2180E-10  0.2340E-10  0.2420E-10  0.2480E-10  0.2470E-10  0.2370E-10  0.2180E-10  0.2030E-10
  0.1000E+13  0.4880E-19  0.5940E-16  0.1580E-13  0.8650E-12  0.4400E-11  0.8070E-11  0.9190E-11  0.9550E-11  0.9710E-11  0.9880E-11  0.9870E-11  0.9780E-11  0.9430E-11  0.9140E-11
  0.1000E+14  0.2720E-19  0.2670E-16  0.5750E-14  0.2340E-12  0.8060E-12  0.1320E-11  0.1550E-11  0.1630E-11  0.1670E-11  0.1710E-11  0.1720E-11  0.1700E-11  0.1640E-11  0.1600E-11
  0.1000E+15  0.9250E-20  0.7450E-17  0.1380E-14  0.5500E-13  0.2670E-12  0.6200E-12  0.7980E-12  0.8610E-12  0.8900E-12  0.9150E-12  0.9090E-12  0.8690E-12  0.7900E-12  0.7360E-12
  0.1000E+16  0.6620E-20  0.5120E-17  0.9160E-15  0.3840E-13  0.2200E-12  0.5580E-12  0.7310E-12  0.7930E-12  0.8210E-12  0.8440E-12  0.8370E-12  0.7950E-12  0.7150E-12  0.6600E-12
  0.1000E+17  0.6340E-20  0.4880E-17  0.8700E-15  0.3680E-13  0.2160E-12  0.5520E-12  0.7250E-12  0.7860E-12  0.8140E-12  0.8370E-12  0.8300E-12  0.7880E-12  0.7080E-12  0.6530E-12
WAVELENGTH(A)= 
    61.912
 7 14 t 
excit   
     9.120     13.700     22.800     45.600     91.200    228.000    456.000    684.000    912.000   1370.000   2280.000   4560.000   9120.000  13700.000 
  0.1000E+11  0.1690E-19  0.2100E-16  0.5720E-14  0.3340E-12  0.2240E-11  0.6110E-11  0.8180E-11  0.8940E-11  0.9300E-11  0.9580E-11  0.9600E-11  0.9130E-11  0.8280E-11  0.7670E-11
  0.1000E+12  0.1680E-19  0.2070E-16  0.5630E-14  0.3260E-12  0.2100E-11  0.5300E-11  0.6820E-11  0.7350E-11  0.7600E-11  0.7780E-11  0.7780E-11  0.7430E-11  0.6830E-11  0.6390E-11
  0.1000E+13  0.1570E-19  0.1900E-16  0.5000E-14  0.2710E-12  0.1390E-11  0.2570E-11  0.2950E-11  0.3070E-11  0.3130E-11  0.3170E-11  0.3190E-11  0.3140E-11  0.3030E-11  0.2940E-11
  0.1000E+14  0.9050E-20  0.8780E-17  0.1870E-14  0.7560E-13  0.2690E-12  0.4560E-12  0.5380E-12  0.5690E-12  0.5840E-12  0.5980E-12  0.6030E-12  0.5930E-12  0.5700E-12  0.5530E-12
  0.1000E+15  0.3400E-20  0.2710E-17  0.4940E-15  0.1970E-13  0.9770E-13  0.2290E-12  0.2960E-12  0.3190E-12  0.3300E-12  0.3390E-12  0.3380E-12  0.3210E-12  0.2920E-12  0.2720E-12
  0.1000E+16  0.2570E-20  0.1970E-17  0.3490E-15  0.1450E-13  0.8280E-13  0.2090E-12  0.2740E-12  0.2970E-12  0.3080E-12  0.3150E-12  0.3140E-12  0.2970E-12  0.2680E-12  0.2470E-12
  0.1000E+17  0.2490E-20  0.1890E-17  0.3340E-15  0.1400E-13  0.8130E-13  0.2070E-12  0.2720E-12  0.2950E-12  0.3050E-12  0.3130E-12  0.3120E-12  0.2950E-12  0.2650E-12  0.2450E-12
WAVELENGTH(A)= 
    61.946
 7 14 t 
excit   
     9.120     13.700     22.800     45.600     91.200    228.000    456.000    684.000    912.000   1370.000   2280.000   4560.000   9120.000  13700.000 
  0.1000E+11  0.1880E-19  0.2330E-16  0.6310E-14  0.3690E-12  0.2460E-11  0.6720E-11  0.9010E-11  0.9840E-11  0.1020E-10  0.1050E-10  0.1050E-10  0.1000E-10  0.9090E-11  0.8400E-11
  0.1000E+12  0.1870E-19  0.2300E-16  0.6220E-14  0.3600E-12  0.2300E-11  0.5800E-11  0.7470E-11  0.8040E-11  0.8290E-11  0.8470E-11  0.8460E-11  0.8100E-11  0.7430E-11  0.6940E-11
  0.1000E+13  0.1750E-19  0.2100E-16  0.5520E-14  0.2990E-12  0.1530E-11  0.2810E-11  0.3220E-11  0.3350E-11  0.3400E-11  0.3450E-11  0.3460E-11  0.3410E-11  0.3280E-11  0.3170E-11
  0.1000E+14  0.1010E-19  0.9770E-17  0.2070E-14  0.8380E-13  0.2970E-12  0.5030E-12  0.5940E-12  0.6270E-12  0.6430E-12  0.6570E-12  0.6620E-12  0.6510E-12  0.6250E-12  0.6050E-12
  0.1000E+15  0.3810E-20  0.3020E-17  0.5490E-15  0.2190E-13  0.1080E-12  0.2530E-12  0.3270E-12  0.3530E-12  0.3640E-12  0.3730E-12  0.3720E-12  0.3540E-12  0.3220E-12  0.2990E-12
  0.1000E+16  0.2880E-20  0.2200E-17  0.3870E-15  0.1610E-13  0.9160E-13  0.2310E-12  0.3020E-12  0.3280E-12  0.3390E-12  0.3470E-12  0.3460E-12  0.3270E-12  0.2950E-12  0.2720E-12
  0.1000E+17  0.2780E-20  0.2110E-17  0.3710E-15  0.1550E-13  0.9000E-13  0.2290E-12  0.3000E-12  0.3250E-12  0.3370E-12  0.3450E-12  0.3430E-12  0.3250E-12  0.2920E-12  0.2690E-12
WAVELENGTH(A)= 
    62.294
 7 14 t 
excit   
     9.120     13.700     22.800     45.600     91.200    228.000    456.000    684.000    912.000   1370.000   2280.000   4560.000   9120.000  13700.000 
  0.1000E+11  0.1050E-18  0.1240E-15  0.3280E-13  0.1870E-11  0.1230E-10  0.3330E-10  0.4460E-10  0.4870E-10  0.5030E-10  0.5190E-10  0.5210E-10  0.4950E-10  0.4490E-10  0.4150E-10
  0.1000E+12  0.1040E-18  0.1230E-15  0.3230E-13  0.1820E-11  0.1140E-10  0.2860E-10  0.3670E-10  0.3940E-10  0.4040E-10  0.4140E-10  0.4150E-10  0.3960E-10  0.3640E-10  0.3410E-10
  0.1000E+13  0.9690E-19  0.1120E-15  0.2850E-13  0.1500E-11  0.7470E-11  0.1340E-10  0.1520E-10  0.1570E-10  0.1580E-10  0.1610E-10  0.1610E-10  0.1590E-10  0.1540E-10  0.1490E-10
  0.1000E+14  0.5260E-19  0.4880E-16  0.1010E-13  0.3930E-12  0.1290E-11  0.2020E-11  0.2330E-11  0.2440E-11  0.2480E-11  0.2530E-11  0.2560E-11  0.2530E-11  0.2450E-11  0.2390E-11
  0.1000E+15  0.1590E-19  0.1220E-16  0.2160E-14  0.8260E-13  0.3830E-12  0.8660E-12  0.1110E-11  0.1190E-11  0.1230E-11  0.1260E-11  0.1260E-11  0.1200E-11  0.1090E-11  0.1020E-11
  0.1000E+16  0.1060E-19  0.7740E-17  0.1330E-14  0.5400E-13  0.3050E-12  0.7660E-12  0.1000E-11  0.1090E-11  0.1120E-11  0.1150E-11  0.1140E-11  0.1080E-11  0.9720E-12  0.8980E-12
  0.1000E+17  0.1000E-19  0.7290E-17  0.1250E-14  0.5120E-13  0.2980E-12  0.7560E-12  0.9920E-12  0.1070E-11  0.1110E-11  0.1140E-11  0.1130E-11  0.1070E-11  0.9610E-12  0.8860E-12
WAVELENGTH(A)= 
    63.467
 7 14 t 
excit   
     9.120     13.700     22.800     45.600     91.200    228.000    456.000    684.000    912.000   1370.000   2280.000   4560.000   9120.000  13700.000 
  0.1000E+11  0.2540E-20  0.3310E-17  0.9360E-15  0.5650E-13  0.3830E-12  0.1060E-11  0.1420E-11  0.1550E-11  0.1620E-11  0.1660E-11  0.1670E-11  0.1590E-11  0.1440E-11  0.1340E-11
  0.1000E+12  0.2520E-20  0.3270E-17  0.9230E-15  0.5510E-13  0.3600E-12  0.9210E-12  0.1190E-11  0.1290E-11  0.1330E-11  0.1360E-11  0.1360E-11  0.1300E-11  0.1190E-11  0.1120E-11
  0.1000E+13  0.2380E-20  0.3010E-17  0.8240E-15  0.4620E-13  0.2420E-12  0.4590E-12  0.5320E-12  0.5550E-12  0.5660E-12  0.5750E-12  0.5780E-12  0.5690E-12  0.5470E-12  0.5320E-12
  0.1000E+14  0.1430E-20  0.1460E-17  0.3220E-15  0.1360E-13  0.5100E-13  0.9160E-13  0.1100E-12  0.1170E-12  0.1210E-12  0.1230E-12  0.1250E-12  0.1220E-12  0.1170E-12  0.1130E-12
  0.1000E+15  0.6290E-21  0.5230E-18  0.9890E-16  0.4100E-14  0.2120E-13  0.5090E-13  0.6610E-13  0.7150E-13  0.7400E-13  0.7580E-13  0.7570E-13  0.7210E-13  0.6540E-13  0.6100E-13
  0.1000E+16  0.5090E-21  0.4090E-18  0.7520E-16  0.3210E-14  0.1850E-13  0.4720E-13  0.6200E-13  0.6730E-13  0.6970E-13  0.7150E-13  0.7120E-13  0.6750E-13  0.6070E-13  0.5630E-13
  0.1000E+17  0.4970E-21  0.3970E-18  0.7280E-16  0.3120E-14  0.1830E-13  0.4680E-13  0.6160E-13  0.6690E-13  0.6930E-13  0.7100E-13  0.7080E-13  0.6700E-13  0.6020E-13  0.5580E-13
WAVELENGTH(A)= 
    63.588
 7 14 t 
excit   
     9.120     13.700     22.800     45.600     91.200    228.000    456.000    684.000    912.000   1370.000   2280.000   4560.000   9120.000  13700.000 
  0.1000E+11  0.5560E-20  0.7140E-17  0.2010E-14  0.1200E-12  0.8160E-12  0.2280E-11  0.3080E-11  0.3370E-11  0.3530E-11  0.3640E-11  0.3630E-11  0.3470E-11  0.3130E-11  0.2900E-11
  0.1000E+12  0.5600E-20  0.7170E-17  0.2010E-14  0.1200E-12  0.8080E-12  0.2210E-11  0.2940E-11  0.3210E-11  0.3350E-11  0.3450E-11  0.3450E-11  0.3310E-11  0.3010E-11  0.2810E-11
  0.1000E+13  0.5540E-20  0.6890E-17  0.1870E-14  0.1050E-12  0.6000E-12  0.1280E-11  0.1560E-11  0.1660E-11  0.1720E-11  0.1760E-11  0.1780E-11  0.1760E-11  0.1690E-11  0.1630E-11
  0.1000E+14  0.4070E-20  0.4040E-17  0.8770E-15  0.3800E-13  0.1660E-12  0.3400E-12  0.4250E-12  0.4570E-12  0.4740E-12  0.4880E-12  0.4930E-12  0.4840E-12  0.4590E-12  0.4410E-12
  0.1000E+15  0.2550E-20  0.2080E-17  0.3870E-15  0.1620E-13  0.8810E-13  0.2180E-12  0.2860E-12  0.3100E-12  0.3220E-12  0.3310E-12  0.3300E-12  0.3150E-12  0.2860E-12  0.2660E-12
  0.1000E+16  0.2310E-20  0.1830E-17  0.3330E-15  0.1410E-13  0.8080E-13  0.2070E-12  0.2730E-12  0.2960E-12  0.3080E-12  0.3160E-12  0.3150E-12  0.2980E-12  0.2690E-12  0.2490E-12
  0.1000E+17  0.2290E-20  0.1800E-17  0.3270E-15  0.1380E-13  0.8010E-13  0.2060E-12  0.2710E-12  0.2950E-12  0.3060E-12  0.3140E-12  0.3130E-12  0.2970E-12  0.2670E-12  0.2470E-12
WAVELENGTH(A)= 
    63.803
 7 14 t 
excit   
     9.120     13.700     22.800     45.600     91.200    228.000    456.000    684.000    912.000   1370.000   2280.000   4560.000   9120.000  13700.000 
  0.1000E+11  0.2970E-20  0.3730E-17  0.1030E-14  0.6050E-13  0.4040E-12  0.1110E-11  0.1490E-11  0.1620E-11  0.1690E-11  0.1750E-11  0.1740E-11  0.1660E-11  0.1510E-11  0.1390E-11
  0.1000E+12  0.2940E-20  0.3680E-17  0.1010E-14  0.5890E-13  0.3770E-12  0.9560E-12  0.1230E-11  0.1320E-11  0.1370E-11  0.1400E-11  0.1390E-11  0.1340E-11  0.1230E-11  0.1150E-11
  0.1000E+13  0.2750E-20  0.3350E-17  0.8940E-15  0.4880E-13  0.2490E-12  0.4560E-12  0.5190E-12  0.5390E-12  0.5480E-12  0.5580E-12  0.5570E-12  0.5520E-12  0.5320E-12  0.5160E-12
  0.1000E+14  0.1540E-20  0.1510E-17  0.3250E-15  0.1320E-13  0.4550E-13  0.7480E-13  0.8740E-13  0.9200E-13  0.9430E-13  0.9670E-13  0.9700E-13  0.9610E-13  0.9270E-13  0.9010E-13
  0.1000E+15  0.5230E-21  0.4210E-18  0.7780E-16  0.3110E-14  0.1510E-13  0.3500E-13  0.4500E-13  0.4860E-13  0.5030E-13  0.5170E-13  0.5140E-13  0.4910E-13  0.4460E-13  0.4150E-13
  0.1000E+16  0.3740E-21  0.2890E-18  0.5170E-16  0.2170E-14  0.1240E-13  0.3150E-13  0.4130E-13  0.4480E-13  0.4630E-13  0.4770E-13  0.4730E-13  0.4490E-13  0.4040E-13  0.3730E-13
  0.1000E+17  0.3580E-21  0.2760E-18  0.4910E-16  0.2080E-14  0.1220E-13  0.3120E-13  0.4090E-13  0.4440E-13  0.4600E-13  0.4730E-13  0.4690E-13  0.4450E-13  0.4000E-13  0.3690E-13
WAVELENGTH(A)= 
    63.901
 7 14 t 
excit   
     9.120     13.700     22.800     45.600     91.200    228.000    456.000    684.000    912.000   1370.000   2280.000   4560.000   9120.000  13700.000 
  0.1000E+11  0.2960E-20  0.3680E-17  0.1000E-14  0.5850E-13  0.3920E-12  0.1070E-11  0.1430E-11  0.1570E-11  0.1630E-11  0.1680E-11  0.1680E-11  0.1600E-11  0.1450E-11  0.1340E-11
  0.1000E+12  0.2930E-20  0.3630E-17  0.9860E-15  0.5710E-13  0.3670E-12  0.9290E-12  0.1200E-11  0.1290E-11  0.1330E-11  0.1360E-11  0.1360E-11  0.1300E-11  0.1200E-11  0.1120E-11
  0.1000E+13  0.2760E-20  0.3320E-17  0.8760E-15  0.4750E-13  0.2440E-12  0.4510E-12  0.5160E-12  0.5370E-12  0.5480E-12  0.5560E-12  0.5580E-12  0.5500E-12  0.5310E-12  0.5140E-12
  0.1000E+14  0.1580E-20  0.1540E-17  0.3270E-15  0.1320E-13  0.4710E-13  0.7990E-13  0.9430E-13  0.9970E-13  0.1020E-12  0.1050E-12  0.1060E-12  0.1040E-12  0.9990E-13  0.9690E-13
  0.1000E+15  0.5960E-21  0.4750E-18  0.8660E-16  0.3450E-14  0.1710E-13  0.4020E-13  0.5180E-13  0.5600E-13  0.5790E-13  0.5930E-13  0.5920E-13  0.5630E-13  0.5120E-13  0.4770E-13
  0.1000E+16  0.4500E-21  0.3450E-18  0.6110E-16  0.2540E-14  0.1450E-13  0.3670E-13  0.4800E-13  0.5200E-13  0.5390E-13  0.5530E-13  0.5500E-13  0.5200E-13  0.4690E-13  0.4330E-13
  0.1000E+17  0.4350E-21  0.3320E-18  0.5860E-16  0.2450E-14  0.1420E-13  0.3630E-13  0.4760E-13  0.5160E-13  0.5350E-13  0.5480E-13  0.5460E-13  0.5160E-13  0.4640E-13  0.4290E-13
WAVELENGTH(A)= 
    63.963
 7 14 t 
excit   
     9.120     13.700     22.800     45.600     91.200    228.000    456.000    684.000    912.000   1370.000   2280.000   4560.000   9120.000  13700.000 
  0.1000E+11  0.1950E-20  0.2540E-17  0.7200E-15  0.4340E-13  0.2950E-12  0.8120E-12  0.1090E-11  0.1190E-11  0.1240E-11  0.1280E-11  0.1280E-11  0.1220E-11  0.1110E-11  0.1030E-11
  0.1000E+12  0.1940E-20  0.2520E-17  0.7090E-15  0.4240E-13  0.2760E-12  0.7080E-12  0.9170E-12  0.9880E-12  0.1020E-11  0.1040E-11  0.1040E-11  0.1000E-11  0.9170E-12  0.8630E-12
  0.1000E+13  0.1830E-20  0.2310E-17  0.6330E-15  0.3550E-13  0.1860E-12  0.3530E-12  0.4090E-12  0.4270E-12  0.4350E-12  0.4420E-12  0.4440E-12  0.4370E-12  0.4200E-12  0.4090E-12
  0.1000E+14  0.1100E-20  0.1120E-17  0.2470E-15  0.1040E-13  0.3920E-13  0.7040E-13  0.8480E-13  0.9010E-13  0.9260E-13  0.9490E-13  0.9570E-13  0.9390E-13  0.8960E-13  0.8690E-13
  0.1000E+15  0.4830E-21  0.4020E-18  0.7600E-16  0.3150E-14  0.1630E-13  0.3910E-13  0.5080E-13  0.5490E-13  0.5680E-13  0.5830E-13  0.5820E-13  0.5540E-13  0.5020E-13  0.4690E-13
  0.1000E+16  0.3910E-21  0.3140E-18  0.5780E-16  0.2470E-14  0.1420E-13  0.3630E-13  0.4770E-13  0.5170E-13  0.5360E-13  0.5490E-13  0.5470E-13  0.5190E-13  0.4660E-13  0.4320E-13
  0.1000E+17  0.3820E-21  0.3050E-18  0.5600E-16  0.2400E-14  0.1410E-13  0.3600E-13  0.4740E-13  0.5140E-13  0.5320E-13  0.5460E-13  0.5440E-13  0.5150E-13  0.4630E-13  0.4290E-13
WAVELENGTH(A)= 
    64.236
 7 14 t 
excit   
     9.120     13.700     22.800     45.600     91.200    228.000    456.000    684.000    912.000   1370.000   2280.000   4560.000   9120.000  13700.000 
  0.1000E+11  0.3200E-20  0.3960E-17  0.1070E-14  0.6270E-13  0.4190E-12  0.1140E-11  0.1530E-11  0.1670E-11  0.1740E-11  0.1790E-11  0.1790E-11  0.1700E-11  0.1550E-11  0.1430E-11
  0.1000E+12  0.3170E-20  0.3910E-17  0.1060E-14  0.6110E-13  0.3910E-12  0.9870E-12  0.1270E-11  0.1370E-11  0.1410E-11  0.1440E-11  0.1440E-11  0.1380E-11  0.1260E-11  0.1180E-11
  0.1000E+13  0.2980E-20  0.3580E-17  0.9390E-15  0.5090E-13  0.2600E-12  0.4790E-12  0.5480E-12  0.5690E-12  0.5790E-12  0.5870E-12  0.5890E-12  0.5790E-12  0.5580E-12  0.5390E-12
  0.1000E+14  0.1720E-20  0.1660E-17  0.3520E-15  0.1430E-13  0.5060E-13  0.8560E-13  0.1010E-12  0.1070E-12  0.1090E-12  0.1120E-12  0.1130E-12  0.1110E-12  0.1060E-12  0.1030E-12
  0.1000E+15  0.6480E-21  0.5140E-18  0.9340E-16  0.3720E-14  0.1840E-13  0.4310E-13  0.5550E-13  0.6000E-13  0.6190E-13  0.6350E-13  0.6330E-13  0.6020E-13  0.5470E-13  0.5090E-13
  0.1000E+16  0.4900E-21  0.3730E-18  0.6590E-16  0.2730E-14  0.1560E-13  0.3930E-13  0.5140E-13  0.5570E-13  0.5770E-13  0.5910E-13  0.5890E-13  0.5570E-13  0.5010E-13  0.4620E-13
  0.1000E+17  0.4730E-21  0.3590E-18  0.6320E-16  0.2640E-14  0.1530E-13  0.3890E-13  0.5100E-13  0.5530E-13  0.5720E-13  0.5860E-13  0.5840E-13  0.5520E-13  0.4970E-13  0.4580E-13
WAVELENGTH(A)= 
    64.275
 7 14 t 
excit   
     9.120     13.700     22.800     45.600     91.200    228.000    456.000    684.000    912.000   1370.000   2280.000   4560.000   9120.000  13700.000 
  0.1000E+11  0.9330E-20  0.1200E-16  0.3350E-14  0.2000E-12  0.1340E-11  0.3700E-11  0.4960E-11  0.5420E-11  0.5640E-11  0.5790E-11  0.5810E-11  0.5550E-11  0.5040E-11  0.4680E-11
  0.1000E+12  0.9240E-20  0.1180E-16  0.3300E-14  0.1950E-12  0.1250E-11  0.3190E-11  0.4110E-11  0.4420E-11  0.4560E-11  0.4650E-11  0.4660E-11  0.4470E-11  0.4110E-11  0.3860E-11
  0.1000E+13  0.8660E-20  0.1080E-16  0.2920E-14  0.1610E-12  0.8290E-12  0.1530E-11  0.1750E-11  0.1820E-11  0.1850E-11  0.1870E-11  0.1880E-11  0.1850E-11  0.1790E-11  0.1740E-11
  0.1000E+14  0.4900E-20  0.4910E-17  0.1070E-14  0.4430E-13  0.1550E-12  0.2600E-12  0.3060E-12  0.3230E-12  0.3310E-12  0.3380E-12  0.3410E-12  0.3360E-12  0.3250E-12  0.3160E-12
  0.1000E+15  0.1740E-20  0.1430E-17  0.2690E-15  0.1090E-13  0.5360E-13  0.1260E-12  0.1620E-12  0.1750E-12  0.1810E-12  0.1850E-12  0.1850E-12  0.1770E-12  0.1610E-12  0.1500E-12
  0.1000E+16  0.1280E-20  0.1010E-17  0.1830E-15  0.7770E-14  0.4480E-13  0.1140E-12  0.1490E-12  0.1620E-12  0.1680E-12  0.1720E-12  0.1710E-12  0.1620E-12  0.1470E-12  0.1360E-12
  0.1000E+17  0.1230E-20  0.9640E-18  0.1750E-15  0.7470E-14  0.4390E-13  0.1130E-12  0.1480E-12  0.1610E-12  0.1660E-12  0.1700E-12  0.1700E-12  0.1610E-12  0.1450E-12  0.1340E-12
WAVELENGTH(A)= 
    64.304
 7 14 t 
excit   
     9.120     13.700     22.800     45.600     91.200    228.000    456.000    684.000    912.000   1370.000   2280.000   4560.000   9120.000  13700.000 
  0.1000E+11  0.3090E-20  0.3880E-17  0.1070E-14  0.6300E-13  0.4210E-12  0.1160E-11  0.1550E-11  0.1690E-11  0.1760E-11  0.1820E-11  0.1810E-11  0.1730E-11  0.1570E-11  0.1450E-11
  0.1000E+12  0.3070E-20  0.3830E-17  0.1050E-14  0.6140E-13  0.3930E-12  0.9950E-12  0.1280E-11  0.1380E-11  0.1420E-11  0.1460E-11  0.1450E-11  0.1400E-11  0.1280E-11  0.1200E-11
  0.1000E+13  0.2870E-20  0.3490E-17  0.9320E-15  0.5090E-13  0.2590E-12  0.4750E-12  0.5410E-12  0.5620E-12  0.5710E-12  0.5810E-12  0.5800E-12  0.5750E-12  0.5550E-12  0.5370E-12
  0.1000E+14  0.1600E-20  0.1570E-17  0.3380E-15  0.1370E-13  0.4740E-13  0.7790E-13  0.9100E-13  0.9590E-13  0.9820E-13  0.1010E-12  0.1010E-12  0.1000E-12  0.9650E-13  0.9390E-13
  0.1000E+15  0.5440E-21  0.4380E-18  0.8100E-16  0.3230E-14  0.1570E-13  0.3650E-13  0.4690E-13  0.5070E-13  0.5240E-13  0.5380E-13  0.5350E-13  0.5110E-13  0.4650E-13  0.4330E-13
  0.1000E+16  0.3890E-21  0.3010E-18  0.5390E-16  0.2260E-14  0.1300E-13  0.3280E-13  0.4300E-13  0.4660E-13  0.4830E-13  0.4970E-13  0.4930E-13  0.4680E-13  0.4210E-13  0.3880E-13
  0.1000E+17  0.3730E-21  0.2870E-18  0.5120E-16  0.2160E-14  0.1270E-13  0.3250E-13  0.4260E-13  0.4620E-13  0.4790E-13  0.4920E-13  0.4880E-13  0.4640E-13  0.4160E-13  0.3840E-13
WAVELENGTH(A)= 
    64.316
 7 14 t 
excit   
     9.120     13.700     22.800     45.600     91.200    228.000    456.000    684.000    912.000   1370.000   2280.000   4560.000   9120.000  13700.000 
  0.1000E+11  0.1980E-20  0.2590E-17  0.7360E-15  0.4440E-13  0.3010E-12  0.8280E-12  0.1110E-11  0.1220E-11  0.1270E-11  0.1300E-11  0.1310E-11  0.1240E-11  0.1130E-11  0.1050E-11
  0.1000E+12  0.1960E-20  0.2550E-17  0.7240E-15  0.4320E-13  0.2800E-12  0.7120E-12  0.9180E-12  0.9890E-12  0.1020E-11  0.1040E-11  0.1050E-11  0.9980E-12  0.9210E-12  0.8630E-12
  0.1000E+13  0.1840E-20  0.2330E-17  0.6410E-15  0.3580E-13  0.1850E-12  0.3400E-12  0.3880E-12  0.4030E-12  0.4100E-12  0.4160E-12  0.4180E-12  0.4110E-12  0.3980E-12  0.3870E-12
  0.1000E+14  0.1030E-20  0.1050E-17  0.2340E-15  0.9760E-14  0.3430E-13  0.5710E-13  0.6700E-13  0.7070E-13  0.7250E-13  0.7410E-13  0.7480E-13  0.7350E-13  0.7110E-13  0.6920E-13
  0.1000E+15  0.3620E-21  0.3030E-18  0.5780E-16  0.2370E-14  0.1170E-13  0.2740E-13  0.3540E-13  0.3820E-13  0.3950E-13  0.4050E-13  0.4050E-13  0.3850E-13  0.3510E-13  0.3270E-13
  0.1000E+16  0.2640E-21  0.2120E-18  0.3920E-16  0.1680E-14  0.9750E-14  0.2480E-13  0.3260E-13  0.3530E-13  0.3660E-13  0.3750E-13  0.3740E-13  0.3540E-13  0.3190E-13  0.2950E-13
  0.1000E+17  0.2530E-21  0.2030E-18  0.3740E-16  0.1610E-14  0.9560E-14  0.2460E-13  0.3230E-13  0.3500E-13  0.3630E-13  0.3720E-13  0.3710E-13  0.3500E-13  0.3160E-13  0.2920E-13
WAVELENGTH(A)= 
    64.470
 7 14 t 
excit   
     9.120     13.700     22.800     45.600     91.200    228.000    456.000    684.000    912.000   1370.000   2280.000   4560.000   9120.000  13700.000 
  0.1000E+11  0.2950E-20  0.3700E-17  0.1020E-14  0.6010E-13  0.4020E-12  0.1100E-11  0.1480E-11  0.1610E-11  0.1680E-11  0.1730E-11  0.1730E-11  0.1650E-11  0.1500E-11  0.1380E-11
  0.1000E+12  0.2920E-20  0.3650E-17  0.1000E-14  0.5850E-13  0.3750E-12  0.9490E-12  0.1220E-11  0.1310E-11  0.1360E-11  0.1390E-11  0.1380E-11  0.1330E-11  0.1220E-11  0.1140E-11
  0.1000E+13  0.2730E-20  0.3330E-17  0.8880E-15  0.4850E-13  0.2470E-12  0.4520E-12  0.5160E-12  0.5350E-12  0.5440E-12  0.5540E-12  0.5530E-12  0.5480E-12  0.5290E-12  0.5120E-12
  0.1000E+14  0.1530E-20  0.1500E-17  0.3230E-15  0.1310E-13  0.4520E-13  0.7430E-13  0.8670E-13  0.9140E-13  0.9370E-13  0.9610E-13  0.9640E-13  0.9550E-13  0.9200E-13  0.8950E-13
  0.1000E+15  0.5190E-21  0.4180E-18  0.7720E-16  0.3080E-14  0.1500E-13  0.3480E-13  0.4470E-13  0.4830E-13  0.4990E-13  0.5130E-13  0.5100E-13  0.4870E-13  0.4430E-13  0.4120E-13
  0.1000E+16  0.3710E-21  0.2870E-18  0.5140E-16  0.2150E-14  0.1230E-13  0.3130E-13  0.4100E-13  0.4450E-13  0.4600E-13  0.4730E-13  0.4700E-13  0.4460E-13  0.4010E-13  0.3700E-13
  0.1000E+17  0.3560E-21  0.2740E-18  0.4880E-16  0.2060E-14  0.1210E-13  0.3100E-13  0.4060E-13  0.4410E-13  0.4560E-13  0.4690E-13  0.4660E-13  0.4420E-13  0.3970E-13  0.3660E-13
WAVELENGTH(A)= 
   859.675
 7 14 t 
excit   
     9.120     13.700     22.800     45.600     91.200    228.000    456.000    684.000    912.000   1370.000   2280.000   4560.000   9120.000  13700.000 
  0.1000E+11  0.9060E-13  0.1400E-12  0.1930E-12  0.2730E-12  0.5200E-12  0.1010E-11  0.1270E-11  0.1360E-11  0.1390E-11  0.1420E-11  0.1400E-11  0.1320E-11  0.1180E-11  0.1090E-11
  0.1000E+12  0.9350E-13  0.1440E-12  0.2000E-12  0.2870E-12  0.5540E-12  0.1050E-11  0.1280E-11  0.1340E-11  0.1370E-11  0.1370E-11  0.1350E-11  0.1250E-11  0.1120E-11  0.1030E-11
  0.1000E+13  0.1100E-12  0.1690E-12  0.2350E-12  0.3430E-12  0.6170E-12  0.9060E-12  0.9800E-12  0.9920E-12  0.9930E-12  0.9840E-12  0.9620E-12  0.9120E-12  0.8420E-12  0.7950E-12
  0.1000E+14  0.7700E-13  0.9770E-13  0.1120E-12  0.1240E-12  0.1330E-12  0.1340E-12  0.1340E-12  0.1340E-12  0.1340E-12  0.1340E-12  0.1340E-12  0.1350E-12  0.1360E-12  0.1370E-12
  0.1000E+15  0.1220E-13  0.1300E-13  0.1310E-13  0.1280E-13  0.1250E-13  0.1230E-13  0.1220E-13  0.1220E-13  0.1220E-13  0.1220E-13  0.1220E-13  0.1220E-13  0.1220E-13  0.1230E-13
  0.1000E+16  0.1280E-14  0.1330E-14  0.1320E-14  0.1270E-14  0.1230E-14  0.1210E-14  0.1200E-14  0.1200E-14  0.1200E-14  0.1200E-14  0.1200E-14  0.1200E-14  0.1200E-14  0.1200E-14
  0.1000E+17  0.1290E-15  0.1340E-15  0.1320E-15  0.1270E-15  0.1230E-15  0.1210E-15  0.1200E-15  0.1200E-15  0.1200E-15  0.1200E-15  0.1200E-15  0.1200E-15  0.1200E-15  0.1200E-15
WAVELENGTH(A)= 
  1098.930
 7 14 t 
excit   
     9.120     13.700     22.800     45.600     91.200    228.000    456.000    684.000    912.000   1370.000   2280.000   4560.000   9120.000  13700.000 
  0.1000E+11  0.1820E-12  0.2610E-12  0.3440E-12  0.4900E-12  0.9870E-12  0.1990E-11  0.2510E-11  0.2690E-11  0.2760E-11  0.2810E-11  0.2780E-11  0.2620E-11  0.2350E-11  0.2170E-11
  0.1000E+12  0.1870E-12  0.2690E-12  0.3560E-12  0.5120E-12  0.1050E-11  0.2040E-11  0.2510E-11  0.2650E-11  0.2710E-11  0.2730E-11  0.2680E-11  0.2510E-11  0.2250E-11  0.2080E-11
  0.1000E+13  0.2070E-12  0.2920E-12  0.3810E-12  0.5430E-12  0.9760E-12  0.1410E-11  0.1520E-11  0.1550E-11  0.1550E-11  0.1550E-11  0.1530E-11  0.1480E-11  0.1400E-11  0.1340E-11
  0.1000E+14  0.1250E-12  0.1420E-12  0.1490E-12  0.1550E-12  0.1610E-12  0.1590E-12  0.1570E-12  0.1570E-12  0.1570E-12  0.1580E-12  0.1590E-12  0.1610E-12  0.1640E-12  0.1670E-12
  0.1000E+15  0.1850E-13  0.1770E-13  0.1620E-13  0.1470E-13  0.1400E-13  0.1360E-13  0.1350E-13  0.1350E-13  0.1340E-13  0.1350E-13  0.1350E-13  0.1350E-13  0.1360E-13  0.1360E-13
  0.1000E+16  0.1930E-14  0.1790E-14  0.1610E-14  0.1450E-14  0.1370E-14  0.1330E-14  0.1320E-14  0.1320E-14  0.1320E-14  0.1320E-14  0.1320E-14  0.1320E-14  0.1320E-14  0.1320E-14
  0.1000E+17  0.1930E-15  0.1790E-15  0.1610E-15  0.1450E-15  0.1360E-15  0.1330E-15  0.1320E-15  0.1310E-15  0.1310E-15  0.1310E-15  0.1310E-15  0.1310E-15  0.1310E-15  0.1310E-15
WAVELENGTH(A)= 
  1110.120
 7 14 t 
excit   
     9.120     13.700     22.800     45.600     91.200    228.000    456.000    684.000    912.000   1370.000   2280.000   4560.000   9120.000  13700.000 
  0.1000E+11  0.2190E-12  0.3100E-12  0.4060E-12  0.6310E-12  0.1590E-11  0.3550E-11  0.4590E-11  0.4950E-11  0.5120E-11  0.5220E-11  0.5190E-11  0.4900E-11  0.4410E-11  0.4070E-11
  0.1000E+12  0.2430E-12  0.3460E-12  0.4560E-12  0.7200E-12  0.1790E-11  0.3780E-11  0.4700E-11  0.4990E-11  0.5100E-11  0.5150E-11  0.5080E-11  0.4760E-11  0.4280E-11  0.3950E-11
  0.1000E+13  0.3120E-12  0.4370E-12  0.5650E-12  0.8390E-12  0.1630E-11  0.2410E-11  0.2620E-11  0.2670E-11  0.2690E-11  0.2690E-11  0.2670E-11  0.2600E-11  0.2480E-11  0.2390E-11
  0.1000E+14  0.2060E-12  0.2320E-12  0.2420E-12  0.2520E-12  0.2670E-12  0.2650E-12  0.2640E-12  0.2640E-12  0.2650E-12  0.2660E-12  0.2680E-12  0.2720E-12  0.2770E-12  0.2810E-12
  0.1000E+15  0.3180E-13  0.3010E-13  0.2750E-13  0.2500E-13  0.2380E-13  0.2310E-13  0.2290E-13  0.2290E-13  0.2290E-13  0.2290E-13  0.2290E-13  0.2300E-13  0.2310E-13  0.2320E-13
  0.1000E+16  0.3320E-14  0.3070E-14  0.2760E-14  0.2470E-14  0.2330E-14  0.2260E-14  0.2250E-14  0.2240E-14  0.2240E-14  0.2240E-14  0.2240E-14  0.2240E-14  0.2250E-14  0.2250E-14
  0.1000E+17  0.3330E-15  0.3070E-15  0.2760E-15  0.2470E-15  0.2330E-15  0.2260E-15  0.2240E-15  0.2240E-15  0.2240E-15  0.2240E-15  0.2240E-15  0.2240E-15  0.2240E-15  0.2240E-15
WAVELENGTH(A)= 
  1230.530
 7 14 t 
excit   
     9.120     13.700     22.800     45.600     91.200    228.000    456.000    684.000    912.000   1370.000   2280.000   4560.000   9120.000  13700.000 
  0.1000E+11  0.1220E-12  0.1710E-12  0.2230E-12  0.3760E-12  0.1070E-11  0.2510E-11  0.3260E-11  0.3510E-11  0.3620E-11  0.3690E-11  0.3660E-11  0.3430E-11  0.3060E-11  0.2810E-11
  0.1000E+12  0.1670E-12  0.2350E-12  0.3100E-12  0.5260E-12  0.1440E-11  0.3060E-11  0.3760E-11  0.3980E-11  0.4060E-11  0.4100E-11  0.4020E-11  0.3770E-11  0.3380E-11  0.3110E-11
  0.1000E+13  0.1850E-12  0.2460E-12  0.3060E-12  0.4510E-12  0.8720E-12  0.1240E-11  0.1330E-11  0.1360E-11  0.1370E-11  0.1390E-11  0.1400E-11  0.1400E-11  0.1380E-11  0.1370E-11
  0.1000E+14  0.8660E-13  0.9330E-13  0.9390E-13  0.9540E-13  0.9910E-13  0.9700E-13  0.9650E-13  0.9680E-13  0.9710E-13  0.9790E-13  0.9910E-13  0.1010E-12  0.1050E-12  0.1070E-12
  0.1000E+15  0.1230E-13  0.1120E-13  0.9910E-14  0.8800E-14  0.8300E-14  0.8050E-14  0.8000E-14  0.8000E-14  0.8010E-14  0.8020E-14  0.8040E-14  0.8080E-14  0.8130E-14  0.8160E-14
  0.1000E+16  0.1270E-14  0.1130E-14  0.9850E-15  0.8630E-15  0.8090E-15  0.7860E-15  0.7820E-15  0.7810E-15  0.7810E-15  0.7820E-15  0.7830E-15  0.7840E-15  0.7850E-15  0.7850E-15
  0.1000E+17  0.1280E-15  0.1130E-15  0.9840E-16  0.8610E-16  0.8060E-16  0.7840E-16  0.7800E-16  0.7790E-16  0.7790E-16  0.7800E-16  0.7800E-16  0.7810E-16  0.7820E-16  0.7820E-16
WAVELENGTH(A)= 
  1240.680
 7 14 t 
excit   
     9.120     13.700     22.800     45.600     91.200    228.000    456.000    684.000    912.000   1370.000   2280.000   4560.000   9120.000  13700.000 
  0.1000E+11  0.5240E-12  0.7300E-12  0.9410E-12  0.1330E-11  0.2820E-11  0.5840E-11  0.7420E-11  0.7960E-11  0.8200E-11  0.8350E-11  0.8290E-11  0.7810E-11  0.7030E-11  0.6500E-11
  0.1000E+12  0.5360E-12  0.7460E-12  0.9630E-12  0.1380E-11  0.2910E-11  0.5700E-11  0.6970E-11  0.7360E-11  0.7520E-11  0.7590E-11  0.7480E-11  0.7040E-11  0.6360E-11  0.5900E-11
  0.1000E+13  0.5410E-12  0.7360E-12  0.9260E-12  0.1290E-11  0.2280E-11  0.3160E-11  0.3360E-11  0.3410E-11  0.3420E-11  0.3420E-11  0.3390E-11  0.3320E-11  0.3190E-11  0.3090E-11
  0.1000E+14  0.2690E-12  0.2920E-12  0.2950E-12  0.2980E-12  0.3030E-12  0.2900E-12  0.2860E-12  0.2850E-12  0.2850E-12  0.2860E-12  0.2880E-12  0.2930E-12  0.3000E-12  0.3050E-12
  0.1000E+15  0.3720E-13  0.3380E-13  0.2980E-13  0.2640E-13  0.2470E-13  0.2370E-13  0.2350E-13  0.2340E-13  0.2340E-13  0.2340E-13  0.2340E-13  0.2340E-13  0.2360E-13  0.2360E-13
  0.1000E+16  0.3830E-14  0.3390E-14  0.2940E-14  0.2570E-14  0.2400E-14  0.2310E-14  0.2290E-14  0.2280E-14  0.2280E-14  0.2270E-14  0.2270E-14  0.2270E-14  0.2270E-14  0.2270E-14
  0.1000E+17  0.3840E-15  0.3390E-15  0.2940E-15  0.2560E-15  0.2390E-15  0.2300E-15  0.2280E-15  0.2270E-15  0.2270E-15  0.2270E-15  0.2260E-15  0.2260E-15  0.2260E-15  0.2260E-15
WAVELENGTH(A)= 
  1397.040
 7 14 t 
excit   
     9.120     13.700     22.800     45.600     91.200    228.000    456.000    684.000    912.000   1370.000   2280.000   4560.000   9120.000  13700.000 
  0.1000E+11  0.6830E-12  0.9230E-12  0.1170E-11  0.1810E-11  0.4560E-11  0.1030E-10  0.1330E-10  0.1440E-10  0.1490E-10  0.1520E-10  0.1510E-10  0.1420E-10  0.1270E-10  0.1180E-10
  0.1000E+12  0.7480E-12  0.1020E-11  0.1300E-11  0.2030E-11  0.5110E-11  0.1080E-10  0.1340E-10  0.1430E-10  0.1470E-10  0.1490E-10  0.1470E-10  0.1390E-10  0.1260E-10  0.1170E-10
  0.1000E+13  0.7320E-12  0.9520E-12  0.1160E-11  0.1670E-11  0.3130E-11  0.4430E-11  0.4770E-11  0.4870E-11  0.4930E-11  0.4980E-11  0.5020E-11  0.5030E-11  0.4970E-11  0.4910E-11
  0.1000E+14  0.3310E-12  0.3440E-12  0.3370E-12  0.3360E-12  0.3440E-12  0.3320E-12  0.3290E-12  0.3300E-12  0.3310E-12  0.3330E-12  0.3380E-12  0.3460E-12  0.3580E-12  0.3660E-12
  0.1000E+15  0.4610E-13  0.4020E-13  0.3430E-13  0.2970E-13  0.2770E-13  0.2670E-13  0.2640E-13  0.2640E-13  0.2640E-13  0.2650E-13  0.2650E-13  0.2670E-13  0.2680E-13  0.2690E-13
  0.1000E+16  0.4750E-14  0.4040E-14  0.3390E-14  0.2890E-14  0.2680E-14  0.2590E-14  0.2570E-14  0.2570E-14  0.2570E-14  0.2570E-14  0.2570E-14  0.2570E-14  0.2580E-14  0.2580E-14
  0.1000E+17  0.4760E-15  0.4040E-15  0.3390E-15  0.2890E-15  0.2670E-15  0.2580E-15  0.2560E-15  0.2560E-15  0.2560E-15  0.2560E-15  0.2560E-15  0.2560E-15  0.2560E-15  0.2560E-15
WAVELENGTH(A)= 
  1504.030
 7 14 t 
excit   
     9.120     13.700     22.800     45.600     91.200    228.000    456.000    684.000    912.000   1370.000   2280.000   4560.000   9120.000  13700.000 
  0.1000E+11  0.1060E-11  0.1410E-11  0.1790E-11  0.2640E-11  0.6050E-11  0.1290E-10  0.1650E-10  0.1770E-10  0.1830E-10  0.1870E-10  0.1850E-10  0.1750E-10  0.1570E-10  0.1460E-10
  0.1000E+12  0.1090E-11  0.1450E-11  0.1840E-11  0.2730E-11  0.6150E-11  0.1230E-10  0.1500E-10  0.1590E-10  0.1620E-10  0.1640E-10  0.1620E-10  0.1530E-10  0.1390E-10  0.1290E-10
  0.1000E+13  0.1070E-11  0.1380E-11  0.1690E-11  0.2340E-11  0.4160E-11  0.5700E-11  0.6040E-11  0.6120E-11  0.6150E-11  0.6170E-11  0.6160E-11  0.6090E-11  0.5930E-11  0.5800E-11
  0.1000E+14  0.4980E-12  0.5090E-12  0.4910E-12  0.4800E-12  0.4790E-12  0.4530E-12  0.4450E-12  0.4430E-12  0.4440E-12  0.4450E-12  0.4500E-12  0.4590E-12  0.4730E-12  0.4830E-12
  0.1000E+15  0.6690E-13  0.5710E-13  0.4790E-13  0.4090E-13  0.3770E-13  0.3600E-13  0.3550E-13  0.3540E-13  0.3540E-13  0.3540E-13  0.3540E-13  0.3550E-13  0.3570E-13  0.3590E-13
  0.1000E+16  0.6860E-14  0.5700E-14  0.4700E-14  0.3960E-14  0.3640E-14  0.3490E-14  0.3450E-14  0.3440E-14  0.3430E-14  0.3430E-14  0.3430E-14  0.3430E-14  0.3430E-14  0.3430E-14
  0.1000E+17  0.6880E-15  0.5700E-15  0.4690E-15  0.3940E-15  0.3620E-15  0.3480E-15  0.3440E-15  0.3430E-15  0.3420E-15  0.3420E-15  0.3420E-15  0.3420E-15  0.3410E-15  0.3410E-15
WAVELENGTH(A)= 
  1600.100
 7 14 t 
excit   
     9.120     13.700     22.800     45.600     91.200    228.000    456.000    684.000    912.000   1370.000   2280.000   4560.000   9120.000  13700.000 
  0.1000E+11  0.1640E-11  0.2200E-11  0.2790E-11  0.4320E-11  0.1100E-10  0.2460E-10  0.3180E-10  0.3430E-10  0.3550E-10  0.3630E-10  0.3610E-10  0.3410E-10  0.3070E-10  0.2840E-10
  0.1000E+12  0.1700E-11  0.2280E-11  0.2890E-11  0.4480E-11  0.1110E-10  0.2300E-10  0.2850E-10  0.3030E-10  0.3110E-10  0.3160E-10  0.3140E-10  0.2980E-10  0.2720E-10  0.2540E-10
  0.1000E+13  0.1560E-11  0.1990E-11  0.2390E-11  0.3370E-11  0.6190E-11  0.8480E-11  0.9000E-11  0.9150E-11  0.9230E-11  0.9320E-11  0.9400E-11  0.9450E-11  0.9410E-11  0.9330E-11
  0.1000E+14  0.6290E-12  0.6320E-12  0.6010E-12  0.5840E-12  0.5840E-12  0.5500E-12  0.5390E-12  0.5380E-12  0.5390E-12  0.5430E-12  0.5500E-12  0.5650E-12  0.5860E-12  0.6020E-12
  0.1000E+15  0.8150E-13  0.6830E-13  0.5650E-13  0.4770E-13  0.4380E-13  0.4180E-13  0.4130E-13  0.4120E-13  0.4120E-13  0.4120E-13  0.4130E-13  0.4150E-13  0.4170E-13  0.4190E-13
  0.1000E+16  0.8320E-14  0.6790E-14  0.5520E-14  0.4600E-14  0.4210E-14  0.4030E-14  0.3990E-14  0.3980E-14  0.3980E-14  0.3970E-14  0.3970E-14  0.3980E-14  0.3980E-14  0.3980E-14
  0.1000E+17  0.8330E-15  0.6780E-15  0.5500E-15  0.4580E-15  0.4190E-15  0.4020E-15  0.3980E-15  0.3970E-15  0.3960E-15  0.3960E-15  0.3960E-15  0.3960E-15  0.3960E-15  0.3960E-15
WAVELENGTH(A)= 
  1737.740
 7 14 t 
excit   
     9.120     13.700     22.800     45.600     91.200    228.000    456.000    684.000    912.000   1370.000   2280.000   4560.000   9120.000  13700.000 
  0.1000E+11  0.2000E-11  0.2620E-11  0.3280E-11  0.4520E-11  0.8890E-11  0.1760E-10  0.2200E-10  0.2350E-10  0.2420E-10  0.2450E-10  0.2430E-10  0.2290E-10  0.2060E-10  0.1900E-10
  0.1000E+12  0.2000E-11  0.2620E-11  0.3270E-11  0.4500E-11  0.8680E-11  0.1610E-10  0.1940E-10  0.2040E-10  0.2080E-10  0.2100E-10  0.2070E-10  0.1950E-10  0.1770E-10  0.1650E-10
  0.1000E+13  0.1900E-11  0.2420E-11  0.2940E-11  0.3850E-11  0.6130E-11  0.7990E-11  0.8340E-11  0.8390E-11  0.8400E-11  0.8380E-11  0.8310E-11  0.8140E-11  0.7870E-11  0.7660E-11
  0.1000E+14  0.8360E-12  0.8350E-12  0.7890E-12  0.7430E-12  0.6990E-12  0.6340E-12  0.6130E-12  0.6080E-12  0.6060E-12  0.6070E-12  0.6110E-12  0.6230E-12  0.6410E-12  0.6550E-12
  0.1000E+15  0.1020E-12  0.8370E-13  0.6810E-13  0.5660E-13  0.5120E-13  0.4820E-13  0.4740E-13  0.4710E-13  0.4700E-13  0.4700E-13  0.4700E-13  0.4710E-13  0.4730E-13  0.4750E-13
  0.1000E+16  0.1020E-13  0.8180E-14  0.6520E-14  0.5370E-14  0.4880E-14  0.4650E-14  0.4580E-14  0.4560E-14  0.4550E-14  0.4540E-14  0.4530E-14  0.4530E-14  0.4520E-14  0.4520E-14
  0.1000E+17  0.1020E-14  0.8150E-15  0.6490E-15  0.5340E-15  0.4860E-15  0.4630E-15  0.4560E-15  0.4540E-15  0.4530E-15  0.4520E-15  0.4510E-15  0.4510E-15  0.4500E-15  0.4500E-15
WAVELENGTH(A)= 
  1922.670
 7 14 t 
excit   
     9.120     13.700     22.800     45.600     91.200    228.000    456.000    684.000    912.000   1370.000   2280.000   4560.000   9120.000  13700.000 
  0.1000E+11  0.6530E-14  0.1070E-13  0.1610E-13  0.5160E-13  0.2620E-12  0.7860E-12  0.1110E-11  0.1230E-11  0.1290E-11  0.1330E-11  0.1320E-11  0.1230E-11  0.1070E-11  0.9710E-12
  0.1000E+12  0.2310E-13  0.3780E-13  0.5670E-13  0.1340E-12  0.5770E-12  0.1750E-11  0.2460E-11  0.2730E-11  0.2860E-11  0.2950E-11  0.2950E-11  0.2750E-11  0.2410E-11  0.2170E-11
  0.1000E+13  0.8160E-13  0.1220E-12  0.1670E-12  0.2900E-12  0.7640E-12  0.1470E-11  0.1780E-11  0.1890E-11  0.1950E-11  0.2010E-11  0.2060E-11  0.2070E-11  0.2010E-11  0.1950E-11
  0.1000E+14  0.1170E-12  0.1390E-12  0.1510E-12  0.1650E-12  0.1900E-12  0.2070E-12  0.2140E-12  0.2170E-12  0.2200E-12  0.2230E-12  0.2260E-12  0.2310E-12  0.2360E-12  0.2400E-12
  0.1000E+15  0.2330E-13  0.2330E-13  0.2220E-13  0.2090E-13  0.2040E-13  0.2030E-13  0.2040E-13  0.2050E-13  0.2060E-13  0.2070E-13  0.2080E-13  0.2100E-13  0.2110E-13  0.2120E-13
  0.1000E+16  0.2510E-14  0.2450E-14  0.2300E-14  0.2130E-14  0.2050E-14  0.2020E-14  0.2030E-14  0.2040E-14  0.2040E-14  0.2050E-14  0.2060E-14  0.2070E-14  0.2070E-14  0.2080E-14
  0.1000E+17  0.2530E-15  0.2460E-15  0.2310E-15  0.2140E-15  0.2050E-15  0.2020E-15  0.2030E-15  0.2040E-15  0.2040E-15  0.2050E-15  0.2060E-15  0.2060E-15  0.2070E-15  0.2070E-15
WAVELENGTH(A)= 
  1989.100
 7 14 t 
excit   
     9.120     13.700     22.800     45.600     91.200    228.000    456.000    684.000    912.000   1370.000   2280.000   4560.000   9120.000  13700.000 
  0.1000E+11  0.1240E-11  0.1660E-11  0.2110E-11  0.3710E-11  0.1120E-10  0.2630E-10  0.3430E-10  0.3720E-10  0.3860E-10  0.3970E-10  0.3990E-10  0.3830E-10  0.3510E-10  0.3270E-10
  0.1000E+12  0.8930E-12  0.1130E-11  0.1370E-11  0.2250E-11  0.6000E-11  0.1180E-10  0.1450E-10  0.1550E-10  0.1600E-10  0.1650E-10  0.1690E-10  0.1700E-10  0.1670E-10  0.1630E-10
  0.1000E+13  0.3050E-12  0.3540E-12  0.3950E-12  0.5440E-12  0.9990E-12  0.1310E-11  0.1380E-11  0.1410E-11  0.1440E-11  0.1470E-11  0.1530E-11  0.1610E-11  0.1700E-11  0.1760E-11
  0.1000E+14  0.8010E-13  0.7540E-13  0.6810E-13  0.6390E-13  0.6310E-13  0.5920E-13  0.5820E-13  0.5830E-13  0.5850E-13  0.5910E-13  0.6010E-13  0.6210E-13  0.6500E-13  0.6720E-13
  0.1000E+15  0.1000E-13  0.7930E-14  0.6270E-14  0.5130E-14  0.4670E-14  0.4450E-14  0.4410E-14  0.4410E-14  0.4410E-14  0.4420E-14  0.4430E-14  0.4460E-14  0.4490E-14  0.4510E-14
  0.1000E+16  0.1020E-14  0.7880E-15  0.6120E-15  0.4940E-15  0.4480E-15  0.4300E-15  0.4270E-15  0.4260E-15  0.4260E-15  0.4270E-15  0.4270E-15  0.4270E-15  0.4280E-15  0.4280E-15
  0.1000E+17  0.1020E-15  0.7870E-16  0.6100E-16  0.4920E-16  0.4460E-16  0.4280E-16  0.4250E-16  0.4250E-16  0.4250E-16  0.4250E-16  0.4250E-16  0.4260E-16  0.4260E-16  0.4260E-16
WAVELENGTH(A)= 
  2431.730
 7 14 t 
excit   
     9.120     13.700     22.800     45.600     91.200    228.000    456.000    684.000    912.000   1370.000   2280.000   4560.000   9120.000  13700.000 
  0.1000E+11  0.6420E-13  0.9430E-13  0.1270E-12  0.2270E-12  0.6990E-12  0.1720E-11  0.2290E-11  0.2480E-11  0.2570E-11  0.2630E-11  0.2620E-11  0.2460E-11  0.2190E-11  0.2010E-11
  0.1000E+12  0.9650E-13  0.1450E-12  0.2000E-12  0.3600E-12  0.1100E-11  0.2630E-11  0.3410E-11  0.3660E-11  0.3760E-11  0.3800E-11  0.3720E-11  0.3430E-11  0.3010E-11  0.2730E-11
  0.1000E+13  0.2400E-12  0.3550E-12  0.4830E-12  0.7800E-12  0.1750E-11  0.2950E-11  0.3340E-11  0.3450E-11  0.3490E-11  0.3500E-11  0.3460E-11  0.3310E-11  0.3070E-11  0.2900E-11
  0.1000E+14  0.3220E-12  0.3740E-12  0.4000E-12  0.4270E-12  0.4700E-12  0.4850E-12  0.4890E-12  0.4910E-12  0.4930E-12  0.4960E-12  0.5000E-12  0.5050E-12  0.5110E-12  0.5140E-12
  0.1000E+15  0.6040E-13  0.5780E-13  0.5310E-13  0.4860E-13  0.4660E-13  0.4570E-13  0.4560E-13  0.4560E-13  0.4560E-13  0.4570E-13  0.4580E-13  0.4600E-13  0.4610E-13  0.4630E-13
  0.1000E+16  0.6460E-14  0.6010E-14  0.5420E-14  0.4880E-14  0.4630E-14  0.4520E-14  0.4500E-14  0.4500E-14  0.4510E-14  0.4510E-14  0.4510E-14  0.4520E-14  0.4530E-14  0.4530E-14
  0.1000E+17  0.6500E-15  0.6030E-15  0.5430E-15  0.4880E-15  0.4620E-15  0.4520E-15  0.4500E-15  0.4500E-15  0.4500E-15  0.4500E-15  0.4510E-15  0.4510E-15  0.4520E-15  0.4520E-15
WAVELENGTH(A)= 
  2857.550
 7 14 t 
excit   
     9.120     13.700     22.800     45.600     91.200    228.000    456.000    684.000    912.000   1370.000   2280.000   4560.000   9120.000  13700.000 
  0.1000E+11  0.1390E-13  0.2270E-13  0.3430E-13  0.1250E-12  0.7060E-12  0.2300E-11  0.3360E-11  0.3780E-11  0.3980E-11  0.4140E-11  0.4140E-11  0.3870E-11  0.3370E-11  0.3040E-11
  0.1000E+12  0.4490E-13  0.7030E-13  0.1020E-12  0.2510E-12  0.1230E-11  0.4090E-11  0.6000E-11  0.6800E-11  0.7230E-11  0.7640E-11  0.7840E-11  0.7610E-11  0.6940E-11  0.6400E-11
  0.1000E+13  0.9660E-13  0.1280E-12  0.1590E-12  0.2610E-12  0.7170E-12  0.1430E-11  0.1780E-11  0.1930E-11  0.2030E-11  0.2140E-11  0.2270E-11  0.2410E-11  0.2500E-11  0.2540E-11
  0.1000E+14  0.9790E-13  0.1060E-12  0.1060E-12  0.1100E-12  0.1250E-12  0.1360E-12  0.1420E-12  0.1450E-12  0.1470E-12  0.1500E-12  0.1540E-12  0.1600E-12  0.1660E-12  0.1700E-12
  0.1000E+15  0.1820E-13  0.1690E-13  0.1510E-13  0.1350E-13  0.1290E-13  0.1280E-13  0.1290E-13  0.1300E-13  0.1300E-13  0.1310E-13  0.1320E-13  0.1330E-13  0.1350E-13  0.1350E-13
  0.1000E+16  0.1950E-14  0.1770E-14  0.1560E-14  0.1380E-14  0.1300E-14  0.1270E-14  0.1280E-14  0.1280E-14  0.1290E-14  0.1290E-14  0.1300E-14  0.1300E-14  0.1310E-14  0.1310E-14
  0.1000E+17  0.1960E-15  0.1770E-15  0.1560E-15  0.1380E-15  0.1300E-15  0.1270E-15  0.1270E-15  0.1280E-15  0.1280E-15  0.1290E-15  0.1290E-15  0.1300E-15  0.1310E-15  0.1310E-15
WAVELENGTH(A)= 
  2989.360
 7 14 t 
excit   
     9.120     13.700     22.800     45.600     91.200    228.000    456.000    684.000    912.000   1370.000   2280.000   4560.000   9120.000  13700.000 
  0.1000E+11  0.1310E-12  0.1870E-12  0.2480E-12  0.3520E-12  0.7100E-12  0.1430E-11  0.1800E-11  0.1930E-11  0.1990E-11  0.2020E-11  0.2000E-11  0.1880E-11  0.1690E-11  0.1560E-11
  0.1000E+12  0.1350E-12  0.1930E-12  0.2560E-12  0.3680E-12  0.7530E-12  0.1470E-11  0.1800E-11  0.1910E-11  0.1950E-11  0.1960E-11  0.1930E-11  0.1810E-11  0.1620E-11  0.1500E-11
  0.1000E+13  0.1490E-12  0.2100E-12  0.2740E-12  0.3900E-12  0.7020E-12  0.1010E-11  0.1090E-11  0.1110E-11  0.1120E-11  0.1120E-11  0.1100E-11  0.1070E-11  0.1010E-11  0.9670E-12
  0.1000E+14  0.8960E-13  0.1020E-12  0.1070E-12  0.1110E-12  0.1160E-12  0.1140E-12  0.1130E-12  0.1130E-12  0.1130E-12  0.1140E-12  0.1140E-12  0.1160E-12  0.1180E-12  0.1200E-12
  0.1000E+15  0.1330E-13  0.1270E-13  0.1160E-13  0.1060E-13  0.1010E-13  0.9770E-14  0.9690E-14  0.9680E-14  0.9670E-14  0.9680E-14  0.9690E-14  0.9710E-14  0.9760E-14  0.9790E-14
  0.1000E+16  0.1390E-14  0.1290E-14  0.1160E-14  0.1040E-14  0.9840E-15  0.9560E-15  0.9490E-15  0.9470E-15  0.9460E-15  0.9460E-15  0.9460E-15  0.9460E-15  0.9460E-15  0.9470E-15
  0.1000E+17  0.1390E-15  0.1290E-15  0.1160E-15  0.1040E-15  0.9810E-16  0.9530E-16  0.9460E-16  0.9450E-16  0.9440E-16  0.9440E-16  0.9430E-16  0.9430E-16  0.9430E-16  0.9430E-16
WAVELENGTH(A)= 
  3226.640
 7 14 t 
excit   
     9.120     13.700     22.800     45.600     91.200    228.000    456.000    684.000    912.000   1370.000   2280.000   4560.000   9120.000  13700.000 
  0.1000E+11  0.3470E-12  0.4850E-12  0.6350E-12  0.1070E-11  0.3040E-11  0.7120E-11  0.9260E-11  0.9990E-11  0.1030E-10  0.1050E-10  0.1040E-10  0.9740E-11  0.8700E-11  0.8000E-11
  0.1000E+12  0.4730E-12  0.6670E-12  0.8810E-12  0.1500E-11  0.4090E-11  0.8680E-11  0.1070E-10  0.1130E-10  0.1150E-10  0.1160E-10  0.1140E-10  0.1070E-10  0.9590E-11  0.8850E-11
  0.1000E+13  0.5270E-12  0.6980E-12  0.8690E-12  0.1280E-11  0.2480E-11  0.3510E-11  0.3780E-11  0.3860E-11  0.3910E-11  0.3950E-11  0.3980E-11  0.3980E-11  0.3940E-11  0.3880E-11
  0.1000E+14  0.2460E-12  0.2650E-12  0.2670E-12  0.2710E-12  0.2820E-12  0.2760E-12  0.2740E-12  0.2750E-12  0.2760E-12  0.2780E-12  0.2820E-12  0.2880E-12  0.2970E-12  0.3040E-12
  0.1000E+15  0.3500E-13  0.3190E-13  0.2820E-13  0.2500E-13  0.2360E-13  0.2290E-13  0.2280E-13  0.2280E-13  0.2280E-13  0.2280E-13  0.2290E-13  0.2300E-13  0.2310E-13  0.2320E-13
  0.1000E+16  0.3620E-14  0.3220E-14  0.2800E-14  0.2450E-14  0.2300E-14  0.2230E-14  0.2220E-14  0.2220E-14  0.2220E-14  0.2220E-14  0.2220E-14  0.2230E-14  0.2230E-14  0.2230E-14
  0.1000E+17  0.3630E-15  0.3220E-15  0.2800E-15  0.2450E-15  0.2290E-15  0.2230E-15  0.2220E-15  0.2220E-15  0.2220E-15  0.2220E-15  0.2220E-15  0.2220E-15  0.2220E-15  0.2220E-15
WAVELENGTH(A)= 
  3625.290
 7 14 t 
excit   
     9.120     13.700     22.800     45.600     91.200    228.000    456.000    684.000    912.000   1370.000   2280.000   4560.000   9120.000  13700.000 
  0.1000E+11  0.6790E-13  0.9600E-13  0.1250E-12  0.1950E-12  0.4910E-12  0.1100E-11  0.1420E-11  0.1530E-11  0.1580E-11  0.1620E-11  0.1610E-11  0.1520E-11  0.1360E-11  0.1260E-11
  0.1000E+12  0.7510E-13  0.1070E-12  0.1410E-12  0.2230E-12  0.5540E-12  0.1170E-11  0.1450E-11  0.1540E-11  0.1580E-11  0.1590E-11  0.1570E-11  0.1470E-11  0.1320E-11  0.1220E-11
  0.1000E+13  0.9650E-13  0.1350E-12  0.1750E-12  0.2600E-12  0.5050E-12  0.7460E-12  0.8100E-12  0.8260E-12  0.8320E-12  0.8330E-12  0.8270E-12  0.8050E-12  0.7670E-12  0.7390E-12
  0.1000E+14  0.6360E-13  0.7170E-13  0.7480E-13  0.7810E-13  0.8260E-13  0.8190E-13  0.8160E-13  0.8170E-13  0.8190E-13  0.8220E-13  0.8290E-13  0.8420E-13  0.8580E-13  0.8700E-13
  0.1000E+15  0.9830E-14  0.9310E-14  0.8500E-14  0.7730E-14  0.7350E-14  0.7140E-14  0.7090E-14  0.7080E-14  0.7080E-14  0.7080E-14  0.7090E-14  0.7120E-14  0.7150E-14  0.7170E-14
  0.1000E+16  0.1030E-14  0.9500E-15  0.8520E-15  0.7640E-15  0.7210E-15  0.7000E-15  0.6950E-15  0.6940E-15  0.6940E-15  0.6940E-15  0.6940E-15  0.6940E-15  0.6950E-15  0.6950E-15
  0.1000E+17  0.1030E-15  0.9510E-16  0.8530E-16  0.7630E-16  0.7200E-16  0.6990E-16  0.6940E-16  0.6930E-16  0.6930E-16  0.6920E-16  0.6920E-16  0.6920E-16  0.6930E-16  0.6930E-16
WAVELENGTH(A)= 
  4079.970
 7 14 t 
excit   
     9.120     13.700     22.800     45.600     91.200    228.000    456.000    684.000    912.000   1370.000   2280.000   4560.000   9120.000  13700.000 
  0.1000E+11  0.1180E-12  0.1700E-12  0.2240E-12  0.3190E-12  0.6430E-12  0.1300E-11  0.1630E-11  0.1750E-11  0.1800E-11  0.1830E-11  0.1810E-11  0.1700E-11  0.1530E-11  0.1410E-11
  0.1000E+12  0.1220E-12  0.1750E-12  0.2320E-12  0.3330E-12  0.6820E-12  0.1330E-11  0.1630E-11  0.1730E-11  0.1760E-11  0.1780E-11  0.1750E-11  0.1640E-11  0.1470E-11  0.1360E-11
  0.1000E+13  0.1350E-12  0.1900E-12  0.2480E-12  0.3530E-12  0.6360E-12  0.9180E-12  0.9910E-12  0.1010E-11  0.1010E-11  0.1010E-11  0.9990E-12  0.9660E-12  0.9140E-12  0.8750E-12
  0.1000E+14  0.8110E-13  0.9230E-13  0.9690E-13  0.1010E-12  0.1050E-12  0.1030E-12  0.1020E-12  0.1020E-12  0.1020E-12  0.1030E-12  0.1040E-12  0.1050E-12  0.1070E-12  0.1080E-12
  0.1000E+15  0.1210E-13  0.1150E-13  0.1050E-13  0.9600E-14  0.9120E-14  0.8850E-14  0.8780E-14  0.8760E-14  0.8760E-14  0.8760E-14  0.8770E-14  0.8800E-14  0.8840E-14  0.8870E-14
  0.1000E+16  0.1250E-14  0.1170E-14  0.1050E-14  0.9430E-15  0.8910E-15  0.8650E-15  0.8590E-15  0.8570E-15  0.8570E-15  0.8570E-15  0.8560E-15  0.8560E-15  0.8570E-15  0.8570E-15
  0.1000E+17  0.1260E-15  0.1170E-15  0.1050E-15  0.9410E-16  0.8890E-16  0.8630E-16  0.8570E-16  0.8560E-16  0.8550E-16  0.8550E-16  0.8540E-16  0.8540E-16  0.8540E-16  0.8540E-16
WAVELENGTH(A)= 
  4238.720
 7 14 t 
excit   
     9.120     13.700     22.800     45.600     91.200    228.000    456.000    684.000    912.000   1370.000   2280.000   4560.000   9120.000  13700.000 
  0.1000E+11  0.6770E-13  0.9580E-13  0.1250E-12  0.1950E-12  0.4900E-12  0.1100E-11  0.1420E-11  0.1530E-11  0.1580E-11  0.1610E-11  0.1600E-11  0.1510E-11  0.1360E-11  0.1260E-11
  0.1000E+12  0.7490E-13  0.1070E-12  0.1410E-12  0.2220E-12  0.5530E-12  0.1170E-11  0.1450E-11  0.1540E-11  0.1570E-11  0.1590E-11  0.1570E-11  0.1470E-11  0.1320E-11  0.1220E-11
  0.1000E+13  0.9630E-13  0.1350E-12  0.1740E-12  0.2590E-12  0.5040E-12  0.7440E-12  0.8080E-12  0.8240E-12  0.8290E-12  0.8310E-12  0.8250E-12  0.8030E-12  0.7650E-12  0.7370E-12
  0.1000E+14  0.6340E-13  0.7150E-13  0.7460E-13  0.7780E-13  0.8230E-13  0.8170E-13  0.8130E-13  0.8140E-13  0.8160E-13  0.8200E-13  0.8270E-13  0.8390E-13  0.8560E-13  0.8670E-13
  0.1000E+15  0.9800E-14  0.9290E-14  0.8480E-14  0.7710E-14  0.7330E-14  0.7120E-14  0.7070E-14  0.7060E-14  0.7060E-14  0.7060E-14  0.7080E-14  0.7100E-14  0.7130E-14  0.7150E-14
  0.1000E+16  0.1020E-14  0.9470E-15  0.8500E-15  0.7620E-15  0.7190E-15  0.6980E-15  0.6930E-15  0.6920E-15  0.6920E-15  0.6920E-15  0.6920E-15  0.6920E-15  0.6930E-15  0.6930E-15
  0.1000E+17  0.1030E-15  0.9490E-16  0.8500E-16  0.7610E-16  0.7180E-16  0.6970E-16  0.6920E-16  0.6910E-16  0.6910E-16  0.6900E-16  0.6900E-16  0.6910E-16  0.6910E-16  0.6910E-16
WAVELENGTH(A)= 
  4337.450
 7 14 t 
excit   
     9.120     13.700     22.800     45.600     91.200    228.000    456.000    684.000    912.000   1370.000   2280.000   4560.000   9120.000  13700.000 
  0.1000E+11  0.1010E-12  0.1410E-12  0.1810E-12  0.2570E-12  0.5430E-12  0.1120E-11  0.1430E-11  0.1530E-11  0.1580E-11  0.1610E-11  0.1600E-11  0.1500E-11  0.1350E-11  0.1250E-11
  0.1000E+12  0.1030E-12  0.1440E-12  0.1850E-12  0.2650E-12  0.5600E-12  0.1100E-11  0.1340E-11  0.1420E-11  0.1450E-11  0.1460E-11  0.1440E-11  0.1350E-11  0.1220E-11  0.1140E-11
  0.1000E+13  0.1040E-12  0.1420E-12  0.1780E-12  0.2480E-12  0.4380E-12  0.6090E-12  0.6480E-12  0.6560E-12  0.6580E-12  0.6580E-12  0.6530E-12  0.6380E-12  0.6140E-12  0.5950E-12
  0.1000E+14  0.5170E-13  0.5620E-13  0.5680E-13  0.5740E-13  0.5830E-13  0.5590E-13  0.5500E-13  0.5480E-13  0.5480E-13  0.5500E-13  0.5540E-13  0.5640E-13  0.5780E-13  0.5880E-13
  0.1000E+15  0.7160E-14  0.6500E-14  0.5740E-14  0.5080E-14  0.4760E-14  0.4570E-14  0.4520E-14  0.4500E-14  0.4500E-14  0.4500E-14  0.4500E-14  0.4510E-14  0.4530E-14  0.4550E-14
  0.1000E+16  0.7360E-15  0.6520E-15  0.5660E-15  0.4950E-15  0.4610E-15  0.4450E-15  0.4400E-15  0.4390E-15  0.4380E-15  0.4380E-15  0.4370E-15  0.4370E-15  0.4370E-15  0.4370E-15
  0.1000E+17  0.7380E-16  0.6530E-16  0.5650E-16  0.4930E-16  0.4600E-16  0.4430E-16  0.4390E-16  0.4370E-16  0.4370E-16  0.4360E-16  0.4360E-16  0.4360E-16  0.4350E-16  0.4350E-16
WAVELENGTH(A)= 
  4693.510
 7 14 t 
excit   
     9.120     13.700     22.800     45.600     91.200    228.000    456.000    684.000    912.000   1370.000   2280.000   4560.000   9120.000  13700.000 
  0.1000E+11  0.1300E-12  0.1750E-12  0.2230E-12  0.3430E-12  0.8670E-12  0.1950E-11  0.2530E-11  0.2730E-11  0.2820E-11  0.2880E-11  0.2860E-11  0.2700E-11  0.2420E-11  0.2230E-11
  0.1000E+12  0.1420E-12  0.1930E-12  0.2470E-12  0.3870E-12  0.9720E-12  0.2050E-11  0.2550E-11  0.2720E-11  0.2790E-11  0.2830E-11  0.2800E-11  0.2650E-11  0.2400E-11  0.2220E-11
  0.1000E+13  0.1390E-12  0.1810E-12  0.2210E-12  0.3160E-12  0.5950E-12  0.8420E-12  0.9060E-12  0.9260E-12  0.9360E-12  0.9460E-12  0.9540E-12  0.9550E-12  0.9450E-12  0.9320E-12
  0.1000E+14  0.6290E-13  0.6540E-13  0.6410E-13  0.6380E-13  0.6530E-13  0.6320E-13  0.6260E-13  0.6260E-13  0.6290E-13  0.6330E-13  0.6420E-13  0.6580E-13  0.6800E-13  0.6960E-13
  0.1000E+15  0.8750E-14  0.7630E-14  0.6520E-14  0.5650E-14  0.5260E-14  0.5070E-14  0.5030E-14  0.5020E-14  0.5020E-14  0.5030E-14  0.5040E-14  0.5060E-14  0.5100E-14  0.5120E-14
  0.1000E+16  0.9020E-15  0.7670E-15  0.6440E-15  0.5500E-15  0.5090E-15  0.4920E-15  0.4890E-15  0.4880E-15  0.4880E-15  0.4880E-15  0.4880E-15  0.4890E-15  0.4890E-15  0.4890E-15
  0.1000E+17  0.9050E-16  0.7680E-16  0.6430E-16  0.5480E-16  0.5080E-16  0.4910E-16  0.4870E-16  0.4870E-16  0.4860E-16  0.4860E-16  0.4870E-16  0.4870E-16  0.4870E-16  0.4870E-16
WAVELENGTH(A)= 
  5327.650
 7 14 t 
excit   
     9.120     13.700     22.800     45.600     91.200    228.000    456.000    684.000    912.000   1370.000   2280.000   4560.000   9120.000  13700.000 
  0.1000E+11  0.4680E-13  0.6550E-13  0.8570E-13  0.1440E-12  0.4100E-12  0.9610E-12  0.1250E-11  0.1350E-11  0.1390E-11  0.1420E-11  0.1400E-11  0.1310E-11  0.1170E-11  0.1080E-11
  0.1000E+12  0.6390E-13  0.9000E-13  0.1190E-12  0.2020E-12  0.5520E-12  0.1170E-11  0.1440E-11  0.1530E-11  0.1560E-11  0.1570E-11  0.1540E-11  0.1440E-11  0.1290E-11  0.1190E-11
  0.1000E+13  0.7110E-13  0.9430E-13  0.1170E-12  0.1730E-12  0.3340E-12  0.4740E-12  0.5100E-12  0.5220E-12  0.5270E-12  0.5330E-12  0.5370E-12  0.5370E-12  0.5310E-12  0.5240E-12
  0.1000E+14  0.3320E-13  0.3580E-13  0.3600E-13  0.3660E-13  0.3800E-13  0.3720E-13  0.3700E-13  0.3710E-13  0.3730E-13  0.3750E-13  0.3800E-13  0.3890E-13  0.4010E-13  0.4100E-13
  0.1000E+15  0.4730E-14  0.4300E-14  0.3800E-14  0.3380E-14  0.3180E-14  0.3090E-14  0.3070E-14  0.3070E-14  0.3070E-14  0.3080E-14  0.3080E-14  0.3100E-14  0.3120E-14  0.3130E-14
  0.1000E+16  0.4890E-15  0.4340E-15  0.3780E-15  0.3310E-15  0.3100E-15  0.3010E-15  0.3000E-15  0.3000E-15  0.3000E-15  0.3000E-15  0.3000E-15  0.3010E-15  0.3010E-15  0.3010E-15
  0.1000E+17  0.4900E-16  0.4350E-16  0.3770E-16  0.3300E-16  0.3090E-16  0.3010E-16  0.2990E-16  0.2990E-16  0.2990E-16  0.2990E-16  0.2990E-16  0.3000E-16  0.3000E-16  0.3000E-16
WAVELENGTH(A)= 
  5405.410
 7 14 t 
excit   
     9.120     13.700     22.800     45.600     91.200    228.000    456.000    684.000    912.000   1370.000   2280.000   4560.000   9120.000  13700.000 
  0.1000E+11  0.8890E-13  0.1260E-12  0.1640E-12  0.2560E-12  0.6430E-12  0.1440E-11  0.1860E-11  0.2010E-11  0.2070E-11  0.2120E-11  0.2100E-11  0.1980E-11  0.1790E-11  0.1650E-11
  0.1000E+12  0.9840E-13  0.1400E-12  0.1850E-12  0.2920E-12  0.7260E-12  0.1530E-11  0.1910E-11  0.2020E-11  0.2070E-11  0.2090E-11  0.2060E-11  0.1930E-11  0.1730E-11  0.1600E-11
  0.1000E+13  0.1260E-12  0.1770E-12  0.2290E-12  0.3400E-12  0.6610E-12  0.9770E-12  0.1060E-11  0.1080E-11  0.1090E-11  0.1090E-11  0.1080E-11  0.1050E-11  0.1000E-11  0.9670E-12
  0.1000E+14  0.8330E-13  0.9390E-13  0.9800E-13  0.1020E-12  0.1080E-12  0.1070E-12  0.1070E-12  0.1070E-12  0.1070E-12  0.1080E-12  0.1090E-12  0.1100E-12  0.1120E-12  0.1140E-12
  0.1000E+15  0.1290E-13  0.1220E-13  0.1110E-13  0.1010E-13  0.9630E-14  0.9350E-14  0.9280E-14  0.9270E-14  0.9270E-14  0.9270E-14  0.9290E-14  0.9320E-14  0.9360E-14  0.9390E-14
  0.1000E+16  0.1340E-14  0.1240E-14  0.1120E-14  0.1000E-14  0.9440E-15  0.9170E-15  0.9110E-15  0.9090E-15  0.9090E-15  0.9080E-15  0.9090E-15  0.9090E-15  0.9100E-15  0.9100E-15
  0.1000E+17  0.1350E-15  0.1250E-15  0.1120E-15  0.9990E-16  0.9420E-16  0.9150E-16  0.9090E-16  0.9070E-16  0.9070E-16  0.9060E-16  0.9070E-16  0.9070E-16  0.9070E-16  0.9070E-16
WAVELENGTH(A)= 
  5523.340
 7 14 t 
excit   
     9.120     13.700     22.800     45.600     91.200    228.000    456.000    684.000    912.000   1370.000   2280.000   4560.000   9120.000  13700.000 
  0.1000E+11  0.1060E-12  0.1480E-12  0.1900E-12  0.2700E-12  0.5700E-12  0.1180E-11  0.1500E-11  0.1610E-11  0.1660E-11  0.1690E-11  0.1680E-11  0.1580E-11  0.1420E-11  0.1310E-11
  0.1000E+12  0.1080E-12  0.1510E-12  0.1950E-12  0.2790E-12  0.5880E-12  0.1150E-11  0.1410E-11  0.1490E-11  0.1520E-11  0.1530E-11  0.1510E-11  0.1420E-11  0.1290E-11  0.1190E-11
  0.1000E+13  0.1090E-12  0.1490E-12  0.1870E-12  0.2610E-12  0.4600E-12  0.6390E-12  0.6800E-12  0.6890E-12  0.6910E-12  0.6910E-12  0.6860E-12  0.6710E-12  0.6450E-12  0.6240E-12
  0.1000E+14  0.5430E-13  0.5900E-13  0.5970E-13  0.6020E-13  0.6130E-13  0.5870E-13  0.5770E-13  0.5760E-13  0.5760E-13  0.5780E-13  0.5820E-13  0.5920E-13  0.6070E-13  0.6170E-13
  0.1000E+15  0.7520E-14  0.6830E-14  0.6030E-14  0.5340E-14  0.5000E-14  0.4800E-14  0.4740E-14  0.4730E-14  0.4720E-14  0.4720E-14  0.4730E-14  0.4740E-14  0.4760E-14  0.4780E-14
  0.1000E+16  0.7730E-15  0.6850E-15  0.5940E-15  0.5200E-15  0.4840E-15  0.4670E-15  0.4620E-15  0.4610E-15  0.4600E-15  0.4600E-15  0.4590E-15  0.4590E-15  0.4590E-15  0.4590E-15
  0.1000E+17  0.7750E-16  0.6850E-16  0.5930E-16  0.5180E-16  0.4830E-16  0.4660E-16  0.4610E-16  0.4590E-16  0.4590E-16  0.4580E-16  0.4580E-16  0.4570E-16  0.4570E-16  0.4570E-16
WAVELENGTH(A)= 
  5876.820
 7 14 t 
excit   
     9.120     13.700     22.800     45.600     91.200    228.000    456.000    684.000    912.000   1370.000   2280.000   4560.000   9120.000  13700.000 
  0.1000E+11  0.9560E-14  0.1570E-13  0.2360E-13  0.7550E-13  0.3830E-12  0.1150E-11  0.1620E-11  0.1800E-11  0.1880E-11  0.1940E-11  0.1930E-11  0.1800E-11  0.1570E-11  0.1420E-11
  0.1000E+12  0.3390E-13  0.5540E-13  0.8300E-13  0.1960E-12  0.8450E-12  0.2560E-11  0.3610E-11  0.4000E-11  0.4190E-11  0.4330E-11  0.4310E-11  0.4030E-11  0.3530E-11  0.3180E-11
  0.1000E+13  0.1200E-12  0.1790E-12  0.2450E-12  0.4250E-12  0.1120E-11  0.2160E-11  0.2600E-11  0.2770E-11  0.2860E-11  0.2950E-11  0.3020E-11  0.3020E-11  0.2950E-11  0.2860E-11
  0.1000E+14  0.1710E-12  0.2030E-12  0.2210E-12  0.2410E-12  0.2780E-12  0.3030E-12  0.3130E-12  0.3180E-12  0.3210E-12  0.3260E-12  0.3310E-12  0.3390E-12  0.3460E-12  0.3510E-12
  0.1000E+15  0.3410E-13  0.3410E-13  0.3250E-13  0.3060E-13  0.2980E-13  0.2980E-13  0.2990E-13  0.3010E-13  0.3020E-13  0.3030E-13  0.3050E-13  0.3070E-13  0.3090E-13  0.3100E-13
  0.1000E+16  0.3670E-14  0.3590E-14  0.3370E-14  0.3120E-14  0.3000E-14  0.2960E-14  0.2970E-14  0.2980E-14  0.2990E-14  0.3000E-14  0.3010E-14  0.3030E-14  0.3030E-14  0.3040E-14
  0.1000E+17  0.3700E-15  0.3610E-15  0.3380E-15  0.3130E-15  0.3000E-15  0.2960E-15  0.2970E-15  0.2980E-15  0.2990E-15  0.3000E-15  0.3010E-15  0.3020E-15  0.3030E-15  0.3030E-15
WAVELENGTH(A)= 
  6167.510
 7 14 t 
excit   
     9.120     13.700     22.800     45.600     91.200    228.000    456.000    684.000    912.000   1370.000   2280.000   4560.000   9120.000  13700.000 
  0.1000E+11  0.1460E-12  0.1940E-12  0.2460E-12  0.3630E-12  0.8340E-12  0.1780E-11  0.2280E-11  0.2450E-11  0.2520E-11  0.2570E-11  0.2550E-11  0.2410E-11  0.2170E-11  0.2010E-11
  0.1000E+12  0.1500E-12  0.2000E-12  0.2540E-12  0.3760E-12  0.8480E-12  0.1690E-11  0.2070E-11  0.2190E-11  0.2240E-11  0.2260E-11  0.2230E-11  0.2110E-11  0.1920E-11  0.1790E-11
  0.1000E+13  0.1480E-12  0.1910E-12  0.2330E-12  0.3230E-12  0.5730E-12  0.7860E-12  0.8330E-12  0.8440E-12  0.8480E-12  0.8510E-12  0.8490E-12  0.8390E-12  0.8180E-12  0.8000E-12
  0.1000E+14  0.6860E-13  0.7010E-13  0.6770E-13  0.6610E-13  0.6610E-13  0.6250E-13  0.6130E-13  0.6110E-13  0.6120E-13  0.6140E-13  0.6200E-13  0.6330E-13  0.6520E-13  0.6650E-13
  0.1000E+15  0.9230E-14  0.7870E-14  0.6600E-14  0.5640E-14  0.5200E-14  0.4960E-14  0.4900E-14  0.4880E-14  0.4880E-14  0.4880E-14  0.4880E-14  0.4900E-14  0.4920E-14  0.4940E-14
  0.1000E+16  0.9460E-15  0.7860E-15  0.6480E-15  0.5450E-15  0.5010E-15  0.4810E-15  0.4760E-15  0.4740E-15  0.4730E-15  0.4730E-15  0.4730E-15  0.4730E-15  0.4730E-15  0.4730E-15
  0.1000E+17  0.9480E-16  0.7860E-16  0.6460E-16  0.5440E-16  0.4990E-16  0.4790E-16  0.4740E-16  0.4730E-16  0.4720E-16  0.4710E-16  0.4710E-16  0.4710E-16  0.4710E-16  0.4710E-16
WAVELENGTH(A)= 
  7085.670
 7 14 t 
excit   
     9.120     13.700     22.800     45.600     91.200    228.000    456.000    684.000    912.000   1370.000   2280.000   4560.000   9120.000  13700.000 
  0.1000E+11  0.2330E-12  0.3240E-12  0.4170E-12  0.5920E-12  0.1250E-11  0.2590E-11  0.3290E-11  0.3530E-11  0.3640E-11  0.3710E-11  0.3680E-11  0.3470E-11  0.3120E-11  0.2880E-11
  0.1000E+12  0.2380E-12  0.3310E-12  0.4270E-12  0.6120E-12  0.1290E-11  0.2530E-11  0.3090E-11  0.3270E-11  0.3330E-11  0.3370E-11  0.3320E-11  0.3120E-11  0.2820E-11  0.2620E-11
  0.1000E+13  0.2400E-12  0.3260E-12  0.4110E-12  0.5720E-12  0.1010E-11  0.1400E-11  0.1490E-11  0.1510E-11  0.1520E-11  0.1520E-11  0.1510E-11  0.1470E-11  0.1410E-11  0.1370E-11
  0.1000E+14  0.1190E-12  0.1290E-12  0.1310E-12  0.1320E-12  0.1340E-12  0.1290E-12  0.1270E-12  0.1260E-12  0.1260E-12  0.1270E-12  0.1280E-12  0.1300E-12  0.1330E-12  0.1350E-12
  0.1000E+15  0.1650E-13  0.1500E-13  0.1320E-13  0.1170E-13  0.1100E-13  0.1050E-13  0.1040E-13  0.1040E-13  0.1040E-13  0.1040E-13  0.1040E-13  0.1040E-13  0.1040E-13  0.1050E-13
  0.1000E+16  0.1700E-14  0.1500E-14  0.1300E-14  0.1140E-14  0.1060E-14  0.1020E-14  0.1010E-14  0.1010E-14  0.1010E-14  0.1010E-14  0.1010E-14  0.1010E-14  0.1010E-14  0.1010E-14
  0.1000E+17  0.1700E-15  0.1500E-15  0.1300E-15  0.1140E-15  0.1060E-15  0.1020E-15  0.1010E-15  0.1010E-15  0.1010E-15  0.1010E-15  0.1000E-15  0.1000E-15  0.1000E-15  0.1000E-15
WAVELENGTH(A)= 
  8181.970
 7 14 t 
excit   
     9.120     13.700     22.800     45.600     91.200    228.000    456.000    684.000    912.000   1370.000   2280.000   4560.000   9120.000  13700.000 
  0.1000E+11  0.2010E-12  0.2700E-12  0.3430E-12  0.5310E-12  0.1350E-11  0.3020E-11  0.3910E-11  0.4220E-11  0.4360E-11  0.4450E-11  0.4430E-11  0.4190E-11  0.3770E-11  0.3490E-11
  0.1000E+12  0.2090E-12  0.2800E-12  0.3550E-12  0.5510E-12  0.1360E-11  0.2830E-11  0.3510E-11  0.3730E-11  0.3820E-11  0.3880E-11  0.3850E-11  0.3660E-11  0.3350E-11  0.3120E-11
  0.1000E+13  0.1910E-12  0.2440E-12  0.2940E-12  0.4140E-12  0.7610E-12  0.1040E-11  0.1110E-11  0.1120E-11  0.1130E-11  0.1150E-11  0.1150E-11  0.1160E-11  0.1160E-11  0.1150E-11
  0.1000E+14  0.7730E-13  0.7760E-13  0.7380E-13  0.7170E-13  0.7180E-13  0.6760E-13  0.6630E-13  0.6610E-13  0.6630E-13  0.6670E-13  0.6760E-13  0.6940E-13  0.7210E-13  0.7400E-13
  0.1000E+15  0.1000E-13  0.8390E-14  0.6940E-14  0.5870E-14  0.5390E-14  0.5130E-14  0.5070E-14  0.5060E-14  0.5060E-14  0.5060E-14  0.5070E-14  0.5090E-14  0.5130E-14  0.5150E-14
  0.1000E+16  0.1020E-14  0.8340E-15  0.6780E-15  0.5650E-15  0.5170E-15  0.4950E-15  0.4900E-15  0.4890E-15  0.4890E-15  0.4880E-15  0.4880E-15  0.4890E-15  0.4890E-15  0.4890E-15
  0.1000E+17  0.1020E-15  0.8340E-16  0.6760E-16  0.5620E-16  0.5150E-16  0.4930E-16  0.4890E-16  0.4870E-16  0.4870E-16  0.4870E-16  0.4860E-16  0.4870E-16  0.4870E-16  0.4870E-16
WAVELENGTH(A)= 
  9618.160
 7 14 t 
excit   
     9.120     13.700     22.800     45.600     91.200    228.000    456.000    684.000    912.000   1370.000   2280.000   4560.000   9120.000  13700.000 
  0.1000E+11  0.1480E-12  0.2120E-12  0.2800E-12  0.3980E-12  0.8010E-12  0.1610E-11  0.2040E-11  0.2180E-11  0.2240E-11  0.2280E-11  0.2260E-11  0.2130E-11  0.1910E-11  0.1760E-11
  0.1000E+12  0.1520E-12  0.2180E-12  0.2890E-12  0.4160E-12  0.8500E-12  0.1660E-11  0.2040E-11  0.2150E-11  0.2200E-11  0.2220E-11  0.2180E-11  0.2040E-11  0.1830E-11  0.1690E-11
  0.1000E+13  0.1680E-12  0.2370E-12  0.3090E-12  0.4400E-12  0.7920E-12  0.1140E-11  0.1240E-11  0.1260E-11  0.1260E-11  0.1260E-11  0.1250E-11  0.1200E-11  0.1140E-11  0.1090E-11
  0.1000E+14  0.1010E-12  0.1150E-12  0.1210E-12  0.1260E-12  0.1310E-12  0.1290E-12  0.1280E-12  0.1280E-12  0.1280E-12  0.1280E-12  0.1290E-12  0.1310E-12  0.1340E-12  0.1350E-12
  0.1000E+15  0.1500E-13  0.1430E-13  0.1310E-13  0.1200E-13  0.1140E-13  0.1100E-13  0.1090E-13  0.1090E-13  0.1090E-13  0.1090E-13  0.1090E-13  0.1100E-13  0.1100E-13  0.1110E-13
  0.1000E+16  0.1560E-14  0.1450E-14  0.1310E-14  0.1180E-14  0.1110E-14  0.1080E-14  0.1070E-14  0.1070E-14  0.1070E-14  0.1070E-14  0.1070E-14  0.1070E-14  0.1070E-14  0.1070E-14
  0.1000E+17  0.1570E-15  0.1450E-15  0.1310E-15  0.1170E-15  0.1110E-15  0.1080E-15  0.1070E-15  0.1070E-15  0.1070E-15  0.1070E-15  0.1070E-15  0.1060E-15  0.1070E-15  0.1070E-15
