 50  7 14
WAVELENGTH(A)= 
     5.020
 7 14 t 
excit   
    48.400     72.600    121.000    242.000    484.000   1210.000   2420.000   3630.000   4840.000   7260.000  12100.000  24200.000  48400.000  72600.000 
  0.1000E+11  0.1880E-32  0.3410E-25  0.1730E-19  0.3020E-15  0.3690E-13  0.5710E-12  0.1300E-11  0.1650E-11  0.1850E-11  0.2020E-11  0.2140E-11  0.2150E-11  0.2010E-11  0.1890E-11
  0.1000E+12  0.1880E-32  0.3410E-25  0.1730E-19  0.3010E-15  0.3660E-13  0.5640E-12  0.1280E-11  0.1630E-11  0.1820E-11  0.2000E-11  0.2120E-11  0.2130E-11  0.1990E-11  0.1870E-11
  0.1000E+13  0.1860E-32  0.3370E-25  0.1690E-19  0.2870E-15  0.3400E-13  0.5120E-12  0.1150E-11  0.1460E-11  0.1640E-11  0.1800E-11  0.1920E-11  0.1950E-11  0.1840E-11  0.1740E-11
  0.1000E+14  0.1720E-32  0.3050E-25  0.1480E-19  0.2390E-15  0.2810E-13  0.4170E-12  0.9180E-12  0.1160E-11  0.1280E-11  0.1400E-11  0.1480E-11  0.1490E-11  0.1410E-11  0.1330E-11
  0.1000E+15  0.1230E-32  0.2210E-25  0.1230E-19  0.2580E-15  0.3350E-13  0.5040E-12  0.1100E-11  0.1370E-11  0.1510E-11  0.1630E-11  0.1690E-11  0.1650E-11  0.1500E-11  0.1380E-11
  0.1000E+16  0.1030E-32  0.2120E-25  0.1530E-19  0.3290E-15  0.4020E-13  0.5850E-12  0.1260E-11  0.1580E-11  0.1740E-11  0.1880E-11  0.1970E-11  0.1960E-11  0.1810E-11  0.1700E-11
  0.1000E+17  0.1170E-32  0.2510E-25  0.1700E-19  0.3320E-15  0.3850E-13  0.5330E-12  0.1120E-11  0.1390E-11  0.1530E-11  0.1660E-11  0.1750E-11  0.1770E-11  0.1680E-11  0.1590E-11
WAVELENGTH(A)= 
     5.029
 7 14 t 
excit   
    48.400     72.600    121.000    242.000    484.000   1210.000   2420.000   3630.000   4840.000   7260.000  12100.000  24200.000  48400.000  72600.000 
  0.1000E+11  0.3180E-32  0.6440E-25  0.4150E-19  0.7440E-15  0.8320E-13  0.1150E-11  0.2460E-11  0.3060E-11  0.3360E-11  0.3650E-11  0.3820E-11  0.3780E-11  0.3520E-11  0.3310E-11
  0.1000E+12  0.3180E-32  0.6440E-25  0.4150E-19  0.7420E-15  0.8300E-13  0.1150E-11  0.2450E-11  0.3040E-11  0.3340E-11  0.3630E-11  0.3800E-11  0.3750E-11  0.3490E-11  0.3280E-11
  0.1000E+13  0.3190E-32  0.6450E-25  0.4130E-19  0.7350E-15  0.8180E-13  0.1130E-11  0.2420E-11  0.3010E-11  0.3310E-11  0.3610E-11  0.3780E-11  0.3740E-11  0.3480E-11  0.3270E-11
  0.1000E+14  0.3240E-32  0.6480E-25  0.4050E-19  0.6940E-15  0.7550E-13  0.1040E-11  0.2230E-11  0.2790E-11  0.3090E-11  0.3380E-11  0.3580E-11  0.3580E-11  0.3370E-11  0.3190E-11
  0.1000E+15  0.3370E-32  0.6450E-25  0.3600E-19  0.5320E-15  0.5370E-13  0.7200E-12  0.1550E-11  0.1960E-11  0.2180E-11  0.2410E-11  0.2590E-11  0.2670E-11  0.2590E-11  0.2500E-11
  0.1000E+16  0.2950E-32  0.5090E-25  0.2310E-19  0.3330E-15  0.3590E-13  0.5010E-12  0.1090E-11  0.1370E-11  0.1520E-11  0.1670E-11  0.1780E-11  0.1810E-11  0.1730E-11  0.1660E-11
  0.1000E+17  0.1790E-32  0.3060E-25  0.1590E-19  0.2700E-15  0.3000E-13  0.4120E-12  0.8740E-12  0.1090E-11  0.1200E-11  0.1320E-11  0.1400E-11  0.1430E-11  0.1370E-11  0.1310E-11
WAVELENGTH(A)= 
     5.037
 7 14 t 
excit   
    48.400     72.600    121.000    242.000    484.000   1210.000   2420.000   3630.000   4840.000   7260.000  12100.000  24200.000  48400.000  72600.000 
  0.1000E+11  0.3180E-32  0.6300E-25  0.3970E-19  0.7020E-15  0.7780E-13  0.1070E-11  0.2280E-11  0.2830E-11  0.3120E-11  0.3380E-11  0.3550E-11  0.3510E-11  0.3270E-11  0.3070E-11
  0.1000E+12  0.3180E-32  0.6300E-25  0.3960E-19  0.7000E-15  0.7750E-13  0.1070E-11  0.2260E-11  0.2820E-11  0.3100E-11  0.3360E-11  0.3520E-11  0.3480E-11  0.3240E-11  0.3040E-11
  0.1000E+13  0.3190E-32  0.6290E-25  0.3940E-19  0.6900E-15  0.7570E-13  0.1040E-11  0.2210E-11  0.2760E-11  0.3030E-11  0.3300E-11  0.3460E-11  0.3430E-11  0.3200E-11  0.3010E-11
  0.1000E+14  0.3210E-32  0.6280E-25  0.3810E-19  0.6330E-15  0.6720E-13  0.9090E-12  0.1940E-11  0.2440E-11  0.2700E-11  0.2960E-11  0.3140E-11  0.3160E-11  0.3000E-11  0.2840E-11
  0.1000E+15  0.3240E-32  0.6040E-25  0.3220E-19  0.4370E-15  0.4120E-13  0.5320E-12  0.1140E-11  0.1440E-11  0.1600E-11  0.1790E-11  0.1950E-11  0.2050E-11  0.2030E-11  0.1980E-11
  0.1000E+16  0.2650E-32  0.4310E-25  0.1680E-19  0.2040E-15  0.2060E-13  0.2810E-12  0.6080E-12  0.7680E-12  0.8560E-12  0.9480E-12  0.1020E-11  0.1060E-11  0.1030E-11  0.1000E-11
  0.1000E+17  0.1230E-32  0.1890E-25  0.8780E-20  0.1440E-15  0.1580E-13  0.2170E-12  0.4600E-12  0.5750E-12  0.6370E-12  0.7000E-12  0.7490E-12  0.7670E-12  0.7400E-12  0.7120E-12
WAVELENGTH(A)= 
     5.038
 7 14 t 
excit   
    48.400     72.600    121.000    242.000    484.000   1210.000   2420.000   3630.000   4840.000   7260.000  12100.000  24200.000  48400.000  72600.000 
  0.1000E+11  0.1610E-32  0.3790E-25  0.5360E-19  0.1740E-14  0.2300E-12  0.3250E-11  0.6810E-11  0.8420E-11  0.9270E-11  0.1010E-10  0.1070E-10  0.1080E-10  0.1040E-10  0.9860E-11
  0.1000E+12  0.1610E-32  0.3790E-25  0.5350E-19  0.1740E-14  0.2290E-12  0.3230E-11  0.6760E-11  0.8350E-11  0.9190E-11  0.1000E-10  0.1060E-10  0.1070E-10  0.1020E-10  0.9740E-11
  0.1000E+13  0.1610E-32  0.3800E-25  0.5330E-19  0.1710E-14  0.2230E-12  0.3150E-11  0.6580E-11  0.8150E-11  0.8980E-11  0.9820E-11  0.1040E-10  0.1050E-10  0.1010E-10  0.9620E-11
  0.1000E+14  0.1650E-32  0.3840E-25  0.5210E-19  0.1590E-14  0.2010E-12  0.2780E-11  0.5850E-11  0.7270E-11  0.8040E-11  0.8850E-11  0.9460E-11  0.9720E-11  0.9440E-11  0.9040E-11
  0.1000E+15  0.1980E-32  0.4330E-25  0.5090E-19  0.1280E-14  0.1440E-12  0.1870E-11  0.3870E-11  0.4800E-11  0.5310E-11  0.5880E-11  0.6360E-11  0.6700E-11  0.6700E-11  0.6550E-11
  0.1000E+16  0.4200E-32  0.7410E-25  0.5260E-19  0.9340E-15  0.9900E-13  0.1260E-11  0.2550E-11  0.3120E-11  0.3420E-11  0.3720E-11  0.3930E-11  0.4010E-11  0.3890E-11  0.3750E-11
  0.1000E+17  0.8670E-32  0.1120E-24  0.5100E-19  0.7960E-15  0.8280E-13  0.1020E-11  0.2010E-11  0.2430E-11  0.2640E-11  0.2850E-11  0.2990E-11  0.3030E-11  0.2910E-11  0.2780E-11
WAVELENGTH(A)= 
     5.039
 7 14 t 
excit   
    48.400     72.600    121.000    242.000    484.000   1210.000   2420.000   3630.000   4840.000   7260.000  12100.000  24200.000  48400.000  72600.000 
  0.1000E+11  0.6540E-32  0.1280E-24  0.8060E-19  0.1420E-14  0.1570E-12  0.2160E-11  0.4600E-11  0.5720E-11  0.6290E-11  0.6840E-11  0.7160E-11  0.7050E-11  0.6620E-11  0.6210E-11
  0.1000E+12  0.6540E-32  0.1280E-24  0.8050E-19  0.1410E-14  0.1560E-12  0.2150E-11  0.4570E-11  0.5680E-11  0.6260E-11  0.6800E-11  0.7120E-11  0.7010E-11  0.6580E-11  0.6170E-11
  0.1000E+13  0.6550E-32  0.1280E-24  0.8010E-19  0.1390E-14  0.1530E-12  0.2100E-11  0.4470E-11  0.5560E-11  0.6130E-11  0.6680E-11  0.7010E-11  0.6920E-11  0.6510E-11  0.6110E-11
  0.1000E+14  0.6600E-32  0.1280E-24  0.7740E-19  0.1280E-14  0.1360E-12  0.1840E-11  0.3930E-11  0.4930E-11  0.5460E-11  0.6000E-11  0.6360E-11  0.6380E-11  0.6090E-11  0.5760E-11
  0.1000E+15  0.6670E-32  0.1230E-24  0.6550E-19  0.8850E-15  0.8360E-13  0.1080E-11  0.2310E-11  0.2910E-11  0.3260E-11  0.3640E-11  0.3960E-11  0.4140E-11  0.4130E-11  0.4020E-11
  0.1000E+16  0.5460E-32  0.8800E-25  0.3440E-19  0.4170E-15  0.4220E-13  0.5760E-12  0.1250E-11  0.1570E-11  0.1750E-11  0.1940E-11  0.2090E-11  0.2150E-11  0.2120E-11  0.2050E-11
  0.1000E+17  0.2540E-32  0.3910E-25  0.1810E-19  0.2950E-15  0.3260E-13  0.4470E-12  0.9490E-12  0.1190E-11  0.1310E-11  0.1450E-11  0.1540E-11  0.1570E-11  0.1530E-11  0.1470E-11
WAVELENGTH(A)= 
     5.043
 7 14 t 
excit   
    48.400     72.600    121.000    242.000    484.000   1210.000   2420.000   3630.000   4840.000   7260.000  12100.000  24200.000  48400.000  72600.000 
  0.1000E+11  0.2910E-32  0.4880E-25  0.2330E-19  0.3880E-15  0.4650E-13  0.7150E-12  0.1620E-11  0.2060E-11  0.2300E-11  0.2530E-11  0.2670E-11  0.2650E-11  0.2480E-11  0.2330E-11
  0.1000E+12  0.2910E-32  0.4880E-25  0.2330E-19  0.3860E-15  0.4610E-13  0.7060E-12  0.1600E-11  0.2030E-11  0.2270E-11  0.2490E-11  0.2640E-11  0.2630E-11  0.2460E-11  0.2310E-11
  0.1000E+13  0.2880E-32  0.4820E-25  0.2280E-19  0.3690E-15  0.4290E-13  0.6410E-12  0.1440E-11  0.1820E-11  0.2040E-11  0.2250E-11  0.2390E-11  0.2400E-11  0.2280E-11  0.2150E-11
  0.1000E+14  0.2660E-32  0.4380E-25  0.1990E-19  0.3080E-15  0.3540E-13  0.5210E-12  0.1150E-11  0.1440E-11  0.1600E-11  0.1750E-11  0.1840E-11  0.1840E-11  0.1740E-11  0.1650E-11
  0.1000E+15  0.1920E-32  0.3180E-25  0.1660E-19  0.3320E-15  0.4220E-13  0.6310E-12  0.1370E-11  0.1710E-11  0.1880E-11  0.2030E-11  0.2100E-11  0.2030E-11  0.1850E-11  0.1710E-11
  0.1000E+16  0.1610E-32  0.3050E-25  0.2060E-19  0.4230E-15  0.5070E-13  0.7320E-12  0.1580E-11  0.1960E-11  0.2170E-11  0.2350E-11  0.2460E-11  0.2420E-11  0.2240E-11  0.2090E-11
  0.1000E+17  0.1830E-32  0.3610E-25  0.2300E-19  0.4280E-15  0.4880E-13  0.6750E-12  0.1420E-11  0.1750E-11  0.1930E-11  0.2100E-11  0.2210E-11  0.2210E-11  0.2100E-11  0.1980E-11
WAVELENGTH(A)= 
     5.044
 7 14 t 
excit   
    48.400     72.600    121.000    242.000    484.000   1210.000   2420.000   3630.000   4840.000   7260.000  12100.000  24200.000  48400.000  72600.000 
  0.1000E+11  0.4890E-32  0.8180E-25  0.3920E-19  0.6510E-15  0.7790E-13  0.1190E-11  0.2710E-11  0.3450E-11  0.3850E-11  0.4220E-11  0.4460E-11  0.4450E-11  0.4140E-11  0.3890E-11
  0.1000E+12  0.4880E-32  0.8170E-25  0.3910E-19  0.6480E-15  0.7720E-13  0.1180E-11  0.2670E-11  0.3400E-11  0.3800E-11  0.4170E-11  0.4400E-11  0.4400E-11  0.4110E-11  0.3860E-11
  0.1000E+13  0.4840E-32  0.8070E-25  0.3830E-19  0.6200E-15  0.7200E-13  0.1070E-11  0.2410E-11  0.3060E-11  0.3420E-11  0.3760E-11  0.4000E-11  0.4030E-11  0.3810E-11  0.3600E-11
  0.1000E+14  0.4470E-32  0.7330E-25  0.3350E-19  0.5200E-15  0.5980E-13  0.8780E-12  0.1940E-11  0.2440E-11  0.2700E-11  0.2940E-11  0.3100E-11  0.3110E-11  0.2930E-11  0.2770E-11
  0.1000E+15  0.3230E-32  0.5350E-25  0.2800E-19  0.5630E-15  0.7150E-13  0.1060E-11  0.2320E-11  0.2900E-11  0.3190E-11  0.3430E-11  0.3550E-11  0.3450E-11  0.3130E-11  0.2890E-11
  0.1000E+16  0.2720E-32  0.5150E-25  0.3490E-19  0.7170E-15  0.8580E-13  0.1230E-11  0.2660E-11  0.3320E-11  0.3660E-11  0.3960E-11  0.4140E-11  0.4090E-11  0.3780E-11  0.3540E-11
  0.1000E+17  0.3080E-32  0.6060E-25  0.3880E-19  0.7180E-15  0.8150E-13  0.1110E-11  0.2340E-11  0.2890E-11  0.3180E-11  0.3450E-11  0.3630E-11  0.3660E-11  0.3470E-11  0.3290E-11
WAVELENGTH(A)= 
     5.178
 7 14 t 
excit   
    48.400     72.600    121.000    242.000    484.000   1210.000   2420.000   3630.000   4840.000   7260.000  12100.000  24200.000  48400.000  72600.000 
  0.1000E+11  0.1950E-31  0.2420E-24  0.1060E-18  0.1420E-14  0.1380E-12  0.1760E-11  0.3670E-11  0.4520E-11  0.4950E-11  0.5340E-11  0.5550E-11  0.5450E-11  0.5050E-11  0.4710E-11
  0.1000E+12  0.1950E-31  0.2420E-24  0.1060E-18  0.1410E-14  0.1370E-12  0.1750E-11  0.3650E-11  0.4490E-11  0.4920E-11  0.5300E-11  0.5520E-11  0.5410E-11  0.5010E-11  0.4670E-11
  0.1000E+13  0.1950E-31  0.2420E-24  0.1050E-18  0.1390E-14  0.1340E-12  0.1710E-11  0.3570E-11  0.4400E-11  0.4830E-11  0.5210E-11  0.5440E-11  0.5350E-11  0.4960E-11  0.4630E-11
  0.1000E+14  0.1960E-31  0.2420E-24  0.1020E-18  0.1290E-14  0.1200E-12  0.1510E-11  0.3170E-11  0.3940E-11  0.4340E-11  0.4730E-11  0.4980E-11  0.4970E-11  0.4670E-11  0.4390E-11
  0.1000E+15  0.1990E-31  0.2340E-24  0.8720E-19  0.9170E-15  0.7760E-13  0.9420E-12  0.1980E-11  0.2470E-11  0.2750E-11  0.3030E-11  0.3260E-11  0.3370E-11  0.3300E-11  0.3180E-11
  0.1000E+16  0.1660E-31  0.1730E-24  0.4920E-19  0.4820E-15  0.4390E-13  0.5600E-12  0.1190E-11  0.1480E-11  0.1640E-11  0.1800E-11  0.1920E-11  0.1950E-11  0.1880E-11  0.1800E-11
  0.1000E+17  0.8580E-32  0.8620E-25  0.2890E-19  0.3610E-15  0.3500E-13  0.4450E-12  0.9220E-12  0.1140E-11  0.1260E-11  0.1370E-11  0.1450E-11  0.1470E-11  0.1410E-11  0.1340E-11
WAVELENGTH(A)= 
     5.201
 7 14 t 
excit   
    48.400     72.600    121.000    242.000    484.000   1210.000   2420.000   3630.000   4840.000   7260.000  12100.000  24200.000  48400.000  72600.000 
  0.1000E+11  0.1470E-31  0.1480E-24  0.4690E-19  0.5750E-15  0.5920E-13  0.8390E-12  0.1850E-11  0.2340E-11  0.2600E-11  0.2830E-11  0.2970E-11  0.2930E-11  0.2710E-11  0.2550E-11
  0.1000E+12  0.1470E-31  0.1480E-24  0.4680E-19  0.5720E-15  0.5870E-13  0.8280E-12  0.1830E-11  0.2310E-11  0.2560E-11  0.2800E-11  0.2930E-11  0.2900E-11  0.2690E-11  0.2530E-11
  0.1000E+13  0.1460E-31  0.1460E-24  0.4590E-19  0.5460E-15  0.5460E-13  0.7520E-12  0.1640E-11  0.2070E-11  0.2300E-11  0.2520E-11  0.2650E-11  0.2660E-11  0.2490E-11  0.2350E-11
  0.1000E+14  0.1350E-31  0.1330E-24  0.4000E-19  0.4550E-15  0.4510E-13  0.6110E-12  0.1310E-11  0.1640E-11  0.1810E-11  0.1960E-11  0.2050E-11  0.2030E-11  0.1900E-11  0.1800E-11
  0.1000E+15  0.9670E-32  0.9600E-25  0.3320E-19  0.4900E-15  0.5370E-13  0.7400E-12  0.1570E-11  0.1940E-11  0.2120E-11  0.2280E-11  0.2340E-11  0.2250E-11  0.2020E-11  0.1870E-11
  0.1000E+16  0.8070E-32  0.9200E-25  0.4120E-19  0.6240E-15  0.6440E-13  0.8560E-12  0.1800E-11  0.2220E-11  0.2440E-11  0.2620E-11  0.2720E-11  0.2660E-11  0.2440E-11  0.2290E-11
  0.1000E+17  0.9130E-32  0.1080E-24  0.4570E-19  0.6230E-15  0.6090E-13  0.7680E-12  0.1560E-11  0.1910E-11  0.2100E-11  0.2260E-11  0.2360E-11  0.2360E-11  0.2220E-11  0.2110E-11
WAVELENGTH(A)= 
    18.642
 7 14 t 
excit   
    48.400     72.600    121.000    242.000    484.000   1210.000   2420.000   3630.000   4840.000   7260.000  12100.000  24200.000  48400.000  72600.000 
  0.1000E+11  0.4470E-16  0.3740E-14  0.1200E-12  0.1270E-11  0.3510E-11  0.5380E-11  0.5490E-11  0.5260E-11  0.5050E-11  0.4660E-11  0.4130E-11  0.3420E-11  0.2770E-11  0.2440E-11
  0.1000E+12  0.4470E-16  0.3750E-14  0.1200E-12  0.1270E-11  0.3520E-11  0.5390E-11  0.5500E-11  0.5270E-11  0.5050E-11  0.4660E-11  0.4130E-11  0.3420E-11  0.2760E-11  0.2430E-11
  0.1000E+13  0.4500E-16  0.3770E-14  0.1200E-12  0.1290E-11  0.3600E-11  0.5570E-11  0.5710E-11  0.5480E-11  0.5250E-11  0.4840E-11  0.4280E-11  0.3530E-11  0.2840E-11  0.2490E-11
  0.1000E+14  0.4730E-16  0.3940E-14  0.1250E-12  0.1350E-11  0.3780E-11  0.5900E-11  0.6100E-11  0.5870E-11  0.5650E-11  0.5230E-11  0.4650E-11  0.3850E-11  0.3110E-11  0.2730E-11
  0.1000E+15  0.5520E-16  0.4430E-14  0.1300E-12  0.1310E-11  0.3570E-11  0.5550E-11  0.5750E-11  0.5550E-11  0.5350E-11  0.4980E-11  0.4460E-11  0.3740E-11  0.3070E-11  0.2710E-11
  0.1000E+16  0.5670E-16  0.4310E-14  0.1160E-12  0.1170E-11  0.3250E-11  0.5090E-11  0.5260E-11  0.5080E-11  0.4890E-11  0.4550E-11  0.4080E-11  0.3420E-11  0.2810E-11  0.2490E-11
  0.1000E+17  0.4910E-16  0.3730E-14  0.1030E-12  0.1050E-11  0.2880E-11  0.4350E-11  0.4380E-11  0.4180E-11  0.4010E-11  0.3730E-11  0.3360E-11  0.2850E-11  0.2380E-11  0.2120E-11
WAVELENGTH(A)= 
    18.798
 7 14 t 
excit   
    48.400     72.600    121.000    242.000    484.000   1210.000   2420.000   3630.000   4840.000   7260.000  12100.000  24200.000  48400.000  72600.000 
  0.1000E+11  0.1460E-15  0.1030E-13  0.2450E-12  0.2420E-11  0.7170E-11  0.1210E-10  0.1310E-10  0.1280E-10  0.1240E-10  0.1160E-10  0.1040E-10  0.8680E-11  0.7060E-11  0.6210E-11
  0.1000E+12  0.1460E-15  0.1030E-13  0.2440E-12  0.2420E-11  0.7160E-11  0.1210E-10  0.1300E-10  0.1280E-10  0.1240E-10  0.1160E-10  0.1040E-10  0.8640E-11  0.7040E-11  0.6190E-11
  0.1000E+13  0.1450E-15  0.1020E-13  0.2430E-12  0.2410E-11  0.7100E-11  0.1180E-10  0.1270E-10  0.1240E-10  0.1200E-10  0.1120E-10  0.1000E-10  0.8370E-11  0.6830E-11  0.6030E-11
  0.1000E+14  0.1390E-15  0.9770E-14  0.2360E-12  0.2440E-11  0.7340E-11  0.1220E-10  0.1280E-10  0.1240E-10  0.1190E-10  0.1100E-10  0.9710E-11  0.7990E-11  0.6440E-11  0.5650E-11
  0.1000E+15  0.1210E-15  0.8780E-14  0.2490E-12  0.3120E-11  0.9850E-11  0.1620E-10  0.1690E-10  0.1630E-10  0.1550E-10  0.1430E-10  0.1250E-10  0.1010E-10  0.8010E-11  0.6910E-11
  0.1000E+16  0.1210E-15  0.9830E-14  0.3330E-12  0.4040E-11  0.1190E-10  0.1880E-10  0.1940E-10  0.1870E-10  0.1780E-10  0.1650E-10  0.1470E-10  0.1210E-10  0.9830E-11  0.8610E-11
  0.1000E+17  0.1430E-15  0.1180E-13  0.3670E-12  0.3990E-11  0.1110E-10  0.1670E-10  0.1670E-10  0.1590E-10  0.1520E-10  0.1410E-10  0.1260E-10  0.1070E-10  0.8850E-11  0.7880E-11
WAVELENGTH(A)= 
    18.950
 7 14 t 
excit   
    48.400     72.600    121.000    242.000    484.000   1210.000   2420.000   3630.000   4840.000   7260.000  12100.000  24200.000  48400.000  72600.000 
  0.1000E+11  0.6070E-16  0.4260E-14  0.1020E-12  0.1010E-11  0.2980E-11  0.5020E-11  0.5440E-11  0.5330E-11  0.5160E-11  0.4820E-11  0.4320E-11  0.3600E-11  0.2930E-11  0.2580E-11
  0.1000E+12  0.6070E-16  0.4260E-14  0.1010E-12  0.1010E-11  0.2970E-11  0.5010E-11  0.5420E-11  0.5300E-11  0.5140E-11  0.4800E-11  0.4300E-11  0.3590E-11  0.2920E-11  0.2570E-11
  0.1000E+13  0.6040E-16  0.4240E-14  0.1010E-12  0.1000E-11  0.2950E-11  0.4910E-11  0.5270E-11  0.5140E-11  0.4970E-11  0.4640E-11  0.4160E-11  0.3480E-11  0.2840E-11  0.2500E-11
  0.1000E+14  0.5790E-16  0.4060E-14  0.9820E-13  0.1020E-11  0.3050E-11  0.5050E-11  0.5320E-11  0.5140E-11  0.4920E-11  0.4550E-11  0.4030E-11  0.3320E-11  0.2680E-11  0.2340E-11
  0.1000E+15  0.5010E-16  0.3640E-14  0.1030E-12  0.1300E-11  0.4090E-11  0.6740E-11  0.7030E-11  0.6750E-11  0.6440E-11  0.5920E-11  0.5200E-11  0.4210E-11  0.3330E-11  0.2870E-11
  0.1000E+16  0.5010E-16  0.4080E-14  0.1380E-12  0.1680E-11  0.4940E-11  0.7820E-11  0.8070E-11  0.7750E-11  0.7410E-11  0.6860E-11  0.6090E-11  0.5040E-11  0.4080E-11  0.3580E-11
  0.1000E+17  0.5930E-16  0.4910E-14  0.1530E-12  0.1660E-11  0.4620E-11  0.6950E-11  0.6950E-11  0.6620E-11  0.6320E-11  0.5850E-11  0.5250E-11  0.4430E-11  0.3670E-11  0.3270E-11
WAVELENGTH(A)= 
    19.049
 7 14 t 
excit   
    48.400     72.600    121.000    242.000    484.000   1210.000   2420.000   3630.000   4840.000   7260.000  12100.000  24200.000  48400.000  72600.000 
  0.1000E+11  0.7160E-16  0.6010E-14  0.1920E-12  0.2040E-11  0.5640E-11  0.8630E-11  0.8800E-11  0.8440E-11  0.8090E-11  0.7470E-11  0.6630E-11  0.5490E-11  0.4450E-11  0.3910E-11
  0.1000E+12  0.7170E-16  0.6010E-14  0.1920E-12  0.2040E-11  0.5640E-11  0.8650E-11  0.8820E-11  0.8450E-11  0.8100E-11  0.7470E-11  0.6620E-11  0.5480E-11  0.4430E-11  0.3900E-11
  0.1000E+13  0.7210E-16  0.6040E-14  0.1930E-12  0.2070E-11  0.5770E-11  0.8930E-11  0.9160E-11  0.8780E-11  0.8420E-11  0.7770E-11  0.6870E-11  0.5670E-11  0.4560E-11  0.4000E-11
  0.1000E+14  0.7580E-16  0.6320E-14  0.2010E-12  0.2170E-11  0.6070E-11  0.9470E-11  0.9780E-11  0.9420E-11  0.9060E-11  0.8390E-11  0.7450E-11  0.6180E-11  0.4990E-11  0.4370E-11
  0.1000E+15  0.8850E-16  0.7100E-14  0.2080E-12  0.2090E-11  0.5720E-11  0.8900E-11  0.9220E-11  0.8900E-11  0.8580E-11  0.7990E-11  0.7160E-11  0.6000E-11  0.4920E-11  0.4340E-11
  0.1000E+16  0.9100E-16  0.6910E-14  0.1860E-12  0.1870E-11  0.5220E-11  0.8160E-11  0.8440E-11  0.8150E-11  0.7840E-11  0.7300E-11  0.6550E-11  0.5490E-11  0.4510E-11  0.3990E-11
  0.1000E+17  0.7880E-16  0.5990E-14  0.1650E-12  0.1690E-11  0.4620E-11  0.6970E-11  0.7020E-11  0.6710E-11  0.6430E-11  0.5990E-11  0.5390E-11  0.4570E-11  0.3810E-11  0.3400E-11
WAVELENGTH(A)= 
    19.134
 7 14 t 
excit   
    48.400     72.600    121.000    242.000    484.000   1210.000   2420.000   3630.000   4840.000   7260.000  12100.000  24200.000  48400.000  72600.000 
  0.1000E+11  0.6240E-16  0.5230E-14  0.1670E-12  0.1780E-11  0.4910E-11  0.7510E-11  0.7660E-11  0.7340E-11  0.7050E-11  0.6500E-11  0.5770E-11  0.4780E-11  0.3870E-11  0.3410E-11
  0.1000E+12  0.6240E-16  0.5230E-14  0.1670E-12  0.1780E-11  0.4910E-11  0.7530E-11  0.7680E-11  0.7360E-11  0.7050E-11  0.6510E-11  0.5770E-11  0.4770E-11  0.3860E-11  0.3390E-11
  0.1000E+13  0.6280E-16  0.5260E-14  0.1680E-12  0.1800E-11  0.5020E-11  0.7780E-11  0.7970E-11  0.7650E-11  0.7330E-11  0.6760E-11  0.5980E-11  0.4930E-11  0.3970E-11  0.3480E-11
  0.1000E+14  0.6600E-16  0.5510E-14  0.1750E-12  0.1890E-11  0.5280E-11  0.8240E-11  0.8520E-11  0.8200E-11  0.7890E-11  0.7300E-11  0.6490E-11  0.5380E-11  0.4340E-11  0.3810E-11
  0.1000E+15  0.7710E-16  0.6180E-14  0.1810E-12  0.1820E-11  0.4980E-11  0.7750E-11  0.8020E-11  0.7750E-11  0.7470E-11  0.6950E-11  0.6230E-11  0.5220E-11  0.4280E-11  0.3780E-11
  0.1000E+16  0.7920E-16  0.6020E-14  0.1620E-12  0.1630E-11  0.4540E-11  0.7110E-11  0.7350E-11  0.7100E-11  0.6830E-11  0.6360E-11  0.5700E-11  0.4780E-11  0.3930E-11  0.3470E-11
  0.1000E+17  0.6860E-16  0.5210E-14  0.1430E-12  0.1470E-11  0.4020E-11  0.6070E-11  0.6110E-11  0.5840E-11  0.5600E-11  0.5210E-11  0.4700E-11  0.3980E-11  0.3320E-11  0.2960E-11
WAVELENGTH(A)= 
    29.514
 7 14 t 
excit   
    48.400     72.600    121.000    242.000    484.000   1210.000   2420.000   3630.000   4840.000   7260.000  12100.000  24200.000  48400.000  72600.000 
  0.1000E+11  0.3470E-14  0.5390E-13  0.4490E-12  0.1750E-11  0.2950E-11  0.3410E-11  0.3180E-11  0.2960E-11  0.2770E-11  0.2500E-11  0.2180E-11  0.1750E-11  0.1400E-11  0.1210E-11
  0.1000E+12  0.3470E-14  0.5390E-13  0.4480E-12  0.1750E-11  0.2940E-11  0.3400E-11  0.3180E-11  0.2950E-11  0.2760E-11  0.2490E-11  0.2170E-11  0.1740E-11  0.1390E-11  0.1200E-11
  0.1000E+13  0.3480E-14  0.5400E-13  0.4480E-12  0.1740E-11  0.2940E-11  0.3410E-11  0.3190E-11  0.2970E-11  0.2780E-11  0.2510E-11  0.2180E-11  0.1750E-11  0.1400E-11  0.1210E-11
  0.1000E+14  0.3550E-14  0.5470E-13  0.4490E-12  0.1760E-11  0.3030E-11  0.3590E-11  0.3390E-11  0.3160E-11  0.2960E-11  0.2680E-11  0.2320E-11  0.1860E-11  0.1470E-11  0.1270E-11
  0.1000E+15  0.3840E-14  0.5810E-13  0.4740E-12  0.2000E-11  0.3620E-11  0.4370E-11  0.4140E-11  0.3860E-11  0.3620E-11  0.3260E-11  0.2820E-11  0.2250E-11  0.1770E-11  0.1520E-11
  0.1000E+16  0.4430E-14  0.6790E-13  0.5610E-12  0.2310E-11  0.4040E-11  0.4770E-11  0.4490E-11  0.4190E-11  0.3930E-11  0.3570E-11  0.3110E-11  0.2520E-11  0.2010E-11  0.1750E-11
  0.1000E+17  0.5310E-14  0.7750E-13  0.5760E-12  0.2200E-11  0.3700E-11  0.4190E-11  0.3840E-11  0.3540E-11  0.3320E-11  0.3010E-11  0.2650E-11  0.2180E-11  0.1780E-11  0.1570E-11
WAVELENGTH(A)= 
    29.826
 7 14 t 
excit   
    48.400     72.600    121.000    242.000    484.000   1210.000   2420.000   3630.000   4840.000   7260.000  12100.000  24200.000  48400.000  72600.000 
  0.1000E+11  0.7940E-14  0.1330E-12  0.1190E-11  0.5050E-11  0.8880E-11  0.1040E-10  0.9670E-11  0.8930E-11  0.8370E-11  0.7560E-11  0.6560E-11  0.5330E-11  0.4250E-11  0.3710E-11
  0.1000E+12  0.7940E-14  0.1320E-12  0.1190E-11  0.5040E-11  0.8860E-11  0.1030E-10  0.9630E-11  0.8890E-11  0.8330E-11  0.7530E-11  0.6530E-11  0.5290E-11  0.4220E-11  0.3680E-11
  0.1000E+13  0.7950E-14  0.1330E-12  0.1180E-11  0.5020E-11  0.8820E-11  0.1030E-10  0.9640E-11  0.8910E-11  0.8360E-11  0.7550E-11  0.6550E-11  0.5310E-11  0.4240E-11  0.3690E-11
  0.1000E+14  0.8070E-14  0.1340E-12  0.1180E-11  0.5090E-11  0.9200E-11  0.1110E-10  0.1040E-10  0.9670E-11  0.9070E-11  0.8180E-11  0.7070E-11  0.5680E-11  0.4490E-11  0.3890E-11
  0.1000E+15  0.8680E-14  0.1430E-12  0.1310E-11  0.6330E-11  0.1210E-10  0.1490E-10  0.1410E-10  0.1310E-10  0.1230E-10  0.1110E-10  0.9530E-11  0.7580E-11  0.5900E-11  0.5060E-11
  0.1000E+16  0.1100E-13  0.1890E-12  0.1780E-11  0.7940E-11  0.1430E-10  0.1710E-10  0.1610E-10  0.1500E-10  0.1410E-10  0.1280E-10  0.1110E-10  0.9020E-11  0.7190E-11  0.6250E-11
  0.1000E+17  0.1520E-13  0.2410E-12  0.1930E-11  0.7690E-11  0.1320E-10  0.1510E-10  0.1380E-10  0.1280E-10  0.1200E-10  0.1090E-10  0.9530E-11  0.7870E-11  0.6420E-11  0.5660E-11
WAVELENGTH(A)= 
    29.887
 7 14 t 
excit   
    48.400     72.600    121.000    242.000    484.000   1210.000   2420.000   3630.000   4840.000   7260.000  12100.000  24200.000  48400.000  72600.000 
  0.1000E+11  0.4600E-14  0.6010E-13  0.3720E-12  0.1360E-11  0.2460E-11  0.3120E-11  0.3070E-11  0.2900E-11  0.2750E-11  0.2510E-11  0.2190E-11  0.1780E-11  0.1420E-11  0.1230E-11
  0.1000E+12  0.4600E-14  0.6020E-13  0.3740E-12  0.1390E-11  0.2540E-11  0.3250E-11  0.3190E-11  0.3010E-11  0.2850E-11  0.2600E-11  0.2260E-11  0.1830E-11  0.1450E-11  0.1260E-11
  0.1000E+13  0.4670E-14  0.6160E-13  0.3980E-12  0.1630E-11  0.3210E-11  0.4230E-11  0.4130E-11  0.3870E-11  0.3640E-11  0.3270E-11  0.2800E-11  0.2210E-11  0.1700E-11  0.1460E-11
  0.1000E+14  0.5250E-14  0.7300E-13  0.5570E-12  0.2710E-11  0.5450E-11  0.6980E-11  0.6700E-11  0.6230E-11  0.5830E-11  0.5220E-11  0.4450E-11  0.3470E-11  0.2650E-11  0.2250E-11
  0.1000E+15  0.7420E-14  0.1090E-12  0.8950E-12  0.4230E-11  0.8110E-11  0.1000E-10  0.9520E-11  0.8840E-11  0.8280E-11  0.7440E-11  0.6380E-11  0.5040E-11  0.3900E-11  0.3320E-11
  0.1000E+16  0.9390E-14  0.1440E-12  0.1240E-11  0.5360E-11  0.9570E-11  0.1140E-10  0.1070E-10  0.9930E-11  0.9330E-11  0.8430E-11  0.7330E-11  0.5920E-11  0.4700E-11  0.4080E-11
  0.1000E+17  0.1100E-13  0.1690E-12  0.1330E-11  0.5200E-11  0.8800E-11  0.9960E-11  0.9080E-11  0.8360E-11  0.7830E-11  0.7090E-11  0.6210E-11  0.5110E-11  0.4160E-11  0.3670E-11
WAVELENGTH(A)= 
    30.012
 7 14 t 
excit   
    48.400     72.600    121.000    242.000    484.000   1210.000   2420.000   3630.000   4840.000   7260.000  12100.000  24200.000  48400.000  72600.000 
  0.1000E+11  0.7780E-13  0.1000E-11  0.6170E-11  0.2240E-10  0.4020E-10  0.5080E-10  0.5000E-10  0.4690E-10  0.4450E-10  0.4060E-10  0.3570E-10  0.2890E-10  0.2300E-10  0.2000E-10
  0.1000E+12  0.7780E-13  0.1000E-11  0.6150E-11  0.2230E-10  0.3990E-10  0.5030E-10  0.4940E-10  0.4640E-10  0.4400E-10  0.4010E-10  0.3530E-10  0.2860E-10  0.2280E-10  0.1990E-10
  0.1000E+13  0.7710E-13  0.9920E-12  0.6050E-11  0.2140E-10  0.3750E-10  0.4620E-10  0.4500E-10  0.4220E-10  0.4000E-10  0.3660E-10  0.3230E-10  0.2640E-10  0.2130E-10  0.1860E-10
  0.1000E+14  0.7160E-13  0.9070E-12  0.5370E-11  0.1840E-10  0.3220E-10  0.3920E-10  0.3740E-10  0.3470E-10  0.3270E-10  0.2960E-10  0.2600E-10  0.2100E-10  0.1690E-10  0.1480E-10
  0.1000E+15  0.5320E-13  0.6830E-12  0.4660E-11  0.2050E-10  0.3900E-10  0.4800E-10  0.4540E-10  0.4180E-10  0.3910E-10  0.3500E-10  0.3020E-10  0.2380E-10  0.1840E-10  0.1580E-10
  0.1000E+16  0.4590E-13  0.6720E-12  0.5840E-11  0.2600E-10  0.4670E-10  0.5550E-10  0.5190E-10  0.4770E-10  0.4470E-10  0.4030E-10  0.3510E-10  0.2810E-10  0.2230E-10  0.1930E-10
  0.1000E+17  0.5200E-13  0.7900E-12  0.6450E-11  0.2590E-10  0.4410E-10  0.4970E-10  0.4500E-10  0.4110E-10  0.3840E-10  0.3470E-10  0.3040E-10  0.2490E-10  0.2020E-10  0.1780E-10
WAVELENGTH(A)= 
    30.015
 7 14 t 
excit   
    48.400     72.600    121.000    242.000    484.000   1210.000   2420.000   3630.000   4840.000   7260.000  12100.000  24200.000  48400.000  72600.000 
  0.1000E+11  0.8110E-13  0.1200E-11  0.9660E-11  0.3660E-10  0.6090E-10  0.6920E-10  0.6400E-10  0.5930E-10  0.5540E-10  0.4990E-10  0.4320E-10  0.3480E-10  0.2770E-10  0.2410E-10
  0.1000E+12  0.8110E-13  0.1200E-11  0.9650E-11  0.3650E-10  0.6060E-10  0.6890E-10  0.6370E-10  0.5890E-10  0.5500E-10  0.4960E-10  0.4290E-10  0.3450E-10  0.2750E-10  0.2390E-10
  0.1000E+13  0.8110E-13  0.1200E-11  0.9600E-11  0.3600E-10  0.5930E-10  0.6720E-10  0.6220E-10  0.5770E-10  0.5390E-10  0.4870E-10  0.4230E-10  0.3410E-10  0.2720E-10  0.2360E-10
  0.1000E+14  0.8180E-13  0.1200E-11  0.9270E-11  0.3310E-10  0.5270E-10  0.5890E-10  0.5480E-10  0.5110E-10  0.4800E-10  0.4370E-10  0.3840E-10  0.3150E-10  0.2540E-10  0.2230E-10
  0.1000E+15  0.8260E-13  0.1150E-11  0.7850E-11  0.2300E-10  0.3260E-10  0.3490E-10  0.3240E-10  0.3050E-10  0.2890E-10  0.2680E-10  0.2410E-10  0.2050E-10  0.1740E-10  0.1570E-10
  0.1000E+16  0.6780E-13  0.8270E-12  0.4170E-11  0.1100E-10  0.1680E-10  0.1890E-10  0.1780E-10  0.1670E-10  0.1580E-10  0.1450E-10  0.1290E-10  0.1080E-10  0.9050E-11  0.8100E-11
  0.1000E+17  0.3210E-13  0.3740E-12  0.2240E-11  0.7850E-11  0.1300E-10  0.1470E-10  0.1350E-10  0.1260E-10  0.1180E-10  0.1080E-10  0.9540E-11  0.7940E-11  0.6550E-11  0.5820E-11
WAVELENGTH(A)= 
    30.088
 7 14 t 
excit   
    48.400     72.600    121.000    242.000    484.000   1210.000   2420.000   3630.000   4840.000   7260.000  12100.000  24200.000  48400.000  72600.000 
  0.1000E+11  0.1920E-14  0.3180E-13  0.2780E-12  0.1130E-11  0.1960E-11  0.2300E-11  0.2160E-11  0.2000E-11  0.1890E-11  0.1700E-11  0.1480E-11  0.1190E-11  0.9450E-12  0.8180E-12
  0.1000E+12  0.1950E-14  0.3240E-13  0.2870E-12  0.1230E-11  0.2260E-11  0.2790E-11  0.2640E-11  0.2450E-11  0.2290E-11  0.2040E-11  0.1750E-11  0.1370E-11  0.1070E-11  0.9100E-12
  0.1000E+13  0.2270E-14  0.3840E-13  0.3760E-12  0.2110E-11  0.4720E-11  0.6490E-11  0.6290E-11  0.5810E-11  0.5400E-11  0.4740E-11  0.3930E-11  0.2930E-11  0.2130E-11  0.1750E-11
  0.1000E+14  0.4910E-14  0.8700E-13  0.9680E-12  0.5850E-11  0.1230E-10  0.1600E-10  0.1540E-10  0.1420E-10  0.1330E-10  0.1190E-10  0.1000E-10  0.7740E-11  0.5800E-11  0.4850E-11
  0.1000E+15  0.1440E-13  0.2320E-12  0.2080E-11  0.9920E-11  0.1880E-10  0.2330E-10  0.2210E-10  0.2050E-10  0.1930E-10  0.1730E-10  0.1490E-10  0.1180E-10  0.9170E-11  0.7840E-11
  0.1000E+16  0.2120E-13  0.3330E-12  0.2830E-11  0.1210E-10  0.2150E-10  0.2570E-10  0.2420E-10  0.2250E-10  0.2110E-10  0.1910E-10  0.1670E-10  0.1350E-10  0.1070E-10  0.9340E-11
  0.1000E+17  0.2440E-13  0.3800E-12  0.2970E-11  0.1160E-10  0.1960E-10  0.2230E-10  0.2030E-10  0.1870E-10  0.1750E-10  0.1590E-10  0.1400E-10  0.1150E-10  0.9380E-11  0.8280E-11
WAVELENGTH(A)= 
    30.206
 7 14 t 
excit   
    48.400     72.600    121.000    242.000    484.000   1210.000   2420.000   3630.000   4840.000   7260.000  12100.000  24200.000  48400.000  72600.000 
  0.1000E+11  0.8340E-14  0.1210E-12  0.9600E-12  0.3630E-11  0.6030E-11  0.6850E-11  0.6340E-11  0.5840E-11  0.5460E-11  0.4920E-11  0.4260E-11  0.3440E-11  0.2730E-11  0.2370E-11
  0.1000E+12  0.8340E-14  0.1210E-12  0.9590E-12  0.3620E-11  0.6010E-11  0.6810E-11  0.6300E-11  0.5800E-11  0.5420E-11  0.4890E-11  0.4230E-11  0.3410E-11  0.2710E-11  0.2350E-11
  0.1000E+13  0.8350E-14  0.1210E-12  0.9540E-12  0.3570E-11  0.5880E-11  0.6640E-11  0.6150E-11  0.5670E-11  0.5320E-11  0.4800E-11  0.4160E-11  0.3370E-11  0.2680E-11  0.2330E-11
  0.1000E+14  0.8410E-14  0.1210E-12  0.9220E-12  0.3280E-11  0.5220E-11  0.5820E-11  0.5420E-11  0.5030E-11  0.4730E-11  0.4310E-11  0.3780E-11  0.3100E-11  0.2510E-11  0.2200E-11
  0.1000E+15  0.8500E-14  0.1160E-12  0.7810E-12  0.2270E-11  0.3220E-11  0.3420E-11  0.3180E-11  0.2980E-11  0.2830E-11  0.2620E-11  0.2350E-11  0.2020E-11  0.1700E-11  0.1540E-11
  0.1000E+16  0.6980E-14  0.8370E-13  0.4140E-12  0.1080E-11  0.1640E-11  0.1840E-11  0.1730E-11  0.1610E-11  0.1530E-11  0.1400E-11  0.1250E-11  0.1050E-11  0.8760E-12  0.7850E-12
  0.1000E+17  0.3350E-14  0.3820E-13  0.2230E-12  0.7760E-12  0.1280E-11  0.1440E-11  0.1330E-11  0.1230E-11  0.1160E-11  0.1060E-11  0.9300E-12  0.7750E-12  0.6370E-12  0.5650E-12
WAVELENGTH(A)= 
    30.273
 7 14 t 
excit   
    48.400     72.600    121.000    242.000    484.000   1210.000   2420.000   3630.000   4840.000   7260.000  12100.000  24200.000  48400.000  72600.000 
  0.1000E+11  0.1090E-13  0.1420E-12  0.8790E-12  0.3210E-11  0.5800E-11  0.7370E-11  0.7250E-11  0.6850E-11  0.6500E-11  0.5930E-11  0.5180E-11  0.4210E-11  0.3350E-11  0.2910E-11
  0.1000E+12  0.1090E-13  0.1420E-12  0.8840E-12  0.3270E-11  0.6000E-11  0.7680E-11  0.7540E-11  0.7110E-11  0.6740E-11  0.6140E-11  0.5340E-11  0.4320E-11  0.3420E-11  0.2970E-11
  0.1000E+13  0.1100E-13  0.1460E-12  0.9400E-12  0.3850E-11  0.7590E-11  0.9990E-11  0.9770E-11  0.9140E-11  0.8600E-11  0.7730E-11  0.6620E-11  0.5210E-11  0.4030E-11  0.3440E-11
  0.1000E+14  0.1240E-13  0.1720E-12  0.1320E-11  0.6390E-11  0.1290E-10  0.1650E-10  0.1580E-10  0.1470E-10  0.1380E-10  0.1230E-10  0.1050E-10  0.8200E-11  0.6260E-11  0.5310E-11
  0.1000E+15  0.1750E-13  0.2570E-12  0.2110E-11  0.9990E-11  0.1920E-10  0.2370E-10  0.2250E-10  0.2090E-10  0.1960E-10  0.1760E-10  0.1510E-10  0.1190E-10  0.9210E-11  0.7850E-11
  0.1000E+16  0.2220E-13  0.3390E-12  0.2920E-11  0.1270E-10  0.2260E-10  0.2690E-10  0.2520E-10  0.2350E-10  0.2200E-10  0.1990E-10  0.1730E-10  0.1400E-10  0.1110E-10  0.9630E-11
  0.1000E+17  0.2610E-13  0.3990E-12  0.3140E-11  0.1230E-10  0.2080E-10  0.2350E-10  0.2140E-10  0.1970E-10  0.1850E-10  0.1670E-10  0.1470E-10  0.1210E-10  0.9820E-11  0.8660E-11
WAVELENGTH(A)= 
    30.347
 7 14 t 
excit   
    48.400     72.600    121.000    242.000    484.000   1210.000   2420.000   3630.000   4840.000   7260.000  12100.000  24200.000  48400.000  72600.000 
  0.1000E+11  0.1390E-13  0.1740E-12  0.1040E-11  0.3700E-11  0.6610E-11  0.8290E-11  0.8100E-11  0.7650E-11  0.7260E-11  0.6620E-11  0.5780E-11  0.4690E-11  0.3740E-11  0.3250E-11
  0.1000E+12  0.1390E-13  0.1730E-12  0.1040E-11  0.3700E-11  0.6600E-11  0.8260E-11  0.8060E-11  0.7620E-11  0.7220E-11  0.6580E-11  0.5760E-11  0.4680E-11  0.3730E-11  0.3240E-11
  0.1000E+13  0.1380E-13  0.1720E-12  0.1040E-11  0.3680E-11  0.6550E-11  0.8110E-11  0.7850E-11  0.7390E-11  0.7000E-11  0.6370E-11  0.5570E-11  0.4530E-11  0.3620E-11  0.3150E-11
  0.1000E+14  0.1320E-13  0.1640E-12  0.1010E-11  0.3820E-11  0.7070E-11  0.8800E-11  0.8390E-11  0.7810E-11  0.7320E-11  0.6570E-11  0.5650E-11  0.4490E-11  0.3510E-11  0.3030E-11
  0.1000E+15  0.1140E-13  0.1500E-12  0.1150E-11  0.5690E-11  0.1120E-10  0.1400E-10  0.1320E-10  0.1230E-10  0.1140E-10  0.1020E-10  0.8700E-11  0.6790E-11  0.5180E-11  0.4380E-11
  0.1000E+16  0.1280E-13  0.1970E-12  0.1830E-11  0.8190E-11  0.1460E-10  0.1730E-10  0.1620E-10  0.1500E-10  0.1410E-10  0.1270E-10  0.1100E-10  0.8840E-11  0.6990E-11  0.6040E-11
  0.1000E+17  0.1800E-13  0.2690E-12  0.2110E-11  0.8200E-11  0.1380E-10  0.1550E-10  0.1400E-10  0.1290E-10  0.1210E-10  0.1090E-10  0.9550E-11  0.7840E-11  0.6370E-11  0.5600E-11
WAVELENGTH(A)= 
    30.399
 7 14 t 
excit   
    48.400     72.600    121.000    242.000    484.000   1210.000   2420.000   3630.000   4840.000   7260.000  12100.000  24200.000  48400.000  72600.000 
  0.1000E+11  0.1010E-13  0.2140E-12  0.4290E-11  0.3060E-10  0.5990E-10  0.6960E-10  0.6300E-10  0.5800E-10  0.5430E-10  0.4920E-10  0.4320E-10  0.3560E-10  0.2910E-10  0.2560E-10
  0.1000E+12  0.1010E-13  0.2130E-12  0.4280E-11  0.3050E-10  0.5960E-10  0.6910E-10  0.6250E-10  0.5760E-10  0.5380E-10  0.4870E-10  0.4270E-10  0.3520E-10  0.2870E-10  0.2530E-10
  0.1000E+13  0.1010E-13  0.2140E-12  0.4260E-11  0.3000E-10  0.5820E-10  0.6730E-10  0.6090E-10  0.5620E-10  0.5260E-10  0.4770E-10  0.4200E-10  0.3470E-10  0.2830E-10  0.2500E-10
  0.1000E+14  0.1040E-13  0.2170E-12  0.4170E-11  0.2790E-10  0.5230E-10  0.5960E-10  0.5410E-10  0.5010E-10  0.4710E-10  0.4300E-10  0.3820E-10  0.3190E-10  0.2640E-10  0.2350E-10
  0.1000E+15  0.1350E-13  0.2530E-12  0.4120E-11  0.2260E-10  0.3760E-10  0.4020E-10  0.3590E-10  0.3320E-10  0.3120E-10  0.2870E-10  0.2570E-10  0.2210E-10  0.1880E-10  0.1700E-10
  0.1000E+16  0.3560E-13  0.4800E-12  0.4370E-11  0.1660E-10  0.2610E-10  0.2720E-10  0.2380E-10  0.2170E-10  0.2020E-10  0.1820E-10  0.1600E-10  0.1330E-10  0.1100E-10  0.9790E-11
  0.1000E+17  0.8060E-13  0.7590E-12  0.4300E-11  0.1420E-10  0.2180E-10  0.2210E-10  0.1880E-10  0.1690E-10  0.1560E-10  0.1400E-10  0.1220E-10  0.1000E-10  0.8210E-11  0.7270E-11
WAVELENGTH(A)= 
    30.402
 7 14 t 
excit   
    48.400     72.600    121.000    242.000    484.000   1210.000   2420.000   3630.000   4840.000   7260.000  12100.000  24200.000  48400.000  72600.000 
  0.1000E+11  0.5130E-14  0.6620E-13  0.4060E-12  0.1470E-11  0.2650E-11  0.3350E-11  0.3290E-11  0.3090E-11  0.2930E-11  0.2680E-11  0.2350E-11  0.1900E-11  0.1520E-11  0.1320E-11
  0.1000E+12  0.5120E-14  0.6610E-13  0.4060E-12  0.1470E-11  0.2630E-11  0.3310E-11  0.3250E-11  0.3060E-11  0.2900E-11  0.2650E-11  0.2330E-11  0.1880E-11  0.1510E-11  0.1310E-11
  0.1000E+13  0.5080E-14  0.6540E-13  0.3990E-12  0.1410E-11  0.2470E-11  0.3050E-11  0.2960E-11  0.2780E-11  0.2640E-11  0.2410E-11  0.2130E-11  0.1740E-11  0.1400E-11  0.1230E-11
  0.1000E+14  0.4720E-14  0.5980E-13  0.3540E-12  0.1220E-11  0.2120E-11  0.2580E-11  0.2470E-11  0.2290E-11  0.2160E-11  0.1950E-11  0.1710E-11  0.1380E-11  0.1110E-11  0.9750E-12
  0.1000E+15  0.3510E-14  0.4500E-13  0.3070E-12  0.1350E-11  0.2570E-11  0.3170E-11  0.2990E-11  0.2760E-11  0.2580E-11  0.2310E-11  0.1990E-11  0.1570E-11  0.1220E-11  0.1040E-11
  0.1000E+16  0.3020E-14  0.4430E-13  0.3850E-12  0.1720E-11  0.3080E-11  0.3650E-11  0.3420E-11  0.3150E-11  0.2950E-11  0.2660E-11  0.2310E-11  0.1850E-11  0.1470E-11  0.1270E-11
  0.1000E+17  0.3430E-14  0.5200E-13  0.4250E-12  0.1710E-11  0.2900E-11  0.3270E-11  0.2970E-11  0.2710E-11  0.2530E-11  0.2280E-11  0.2010E-11  0.1640E-11  0.1330E-11  0.1170E-11
WAVELENGTH(A)= 
    30.454
 7 14 t 
excit   
    48.400     72.600    121.000    242.000    484.000   1210.000   2420.000   3630.000   4840.000   7260.000  12100.000  24200.000  48400.000  72600.000 
  0.1000E+11  0.3070E-13  0.4370E-12  0.3380E-11  0.1250E-10  0.2050E-10  0.2320E-10  0.2140E-10  0.1980E-10  0.1840E-10  0.1660E-10  0.1440E-10  0.1160E-10  0.9220E-11  0.8020E-11
  0.1000E+12  0.3070E-13  0.4360E-12  0.3370E-11  0.1250E-10  0.2040E-10  0.2310E-10  0.2130E-10  0.1960E-10  0.1830E-10  0.1650E-10  0.1430E-10  0.1160E-10  0.9140E-11  0.7950E-11
  0.1000E+13  0.3070E-13  0.4360E-12  0.3350E-11  0.1230E-10  0.2000E-10  0.2250E-10  0.2080E-10  0.1920E-10  0.1790E-10  0.1620E-10  0.1410E-10  0.1140E-10  0.9040E-11  0.7870E-11
  0.1000E+14  0.3090E-13  0.4350E-12  0.3240E-11  0.1130E-10  0.1770E-10  0.1970E-10  0.1830E-10  0.1700E-10  0.1600E-10  0.1450E-10  0.1280E-10  0.1050E-10  0.8460E-11  0.7420E-11
  0.1000E+15  0.3130E-13  0.4180E-12  0.2740E-11  0.7790E-11  0.1090E-10  0.1150E-10  0.1070E-10  0.1000E-10  0.9490E-11  0.8790E-11  0.7920E-11  0.6800E-11  0.5730E-11  0.5170E-11
  0.1000E+16  0.2550E-13  0.2980E-12  0.1430E-11  0.3640E-11  0.5450E-11  0.6100E-11  0.5720E-11  0.5360E-11  0.5060E-11  0.4660E-11  0.4150E-11  0.3510E-11  0.2920E-11  0.2620E-11
  0.1000E+17  0.1180E-13  0.1310E-12  0.7480E-12  0.2560E-11  0.4180E-11  0.4710E-11  0.4340E-11  0.4020E-11  0.3770E-11  0.3440E-11  0.3050E-11  0.2550E-11  0.2090E-11  0.1860E-11
WAVELENGTH(A)= 
    30.526
 7 14 t 
excit   
    48.400     72.600    121.000    242.000    484.000   1210.000   2420.000   3630.000   4840.000   7260.000  12100.000  24200.000  48400.000  72600.000 
  0.1000E+11  0.9260E-14  0.1160E-12  0.6960E-12  0.2470E-11  0.4410E-11  0.5520E-11  0.5400E-11  0.5100E-11  0.4840E-11  0.4410E-11  0.3860E-11  0.3130E-11  0.2490E-11  0.2170E-11
  0.1000E+12  0.9260E-14  0.1160E-12  0.6950E-12  0.2470E-11  0.4400E-11  0.5510E-11  0.5380E-11  0.5080E-11  0.4820E-11  0.4390E-11  0.3840E-11  0.3120E-11  0.2480E-11  0.2160E-11
  0.1000E+13  0.9210E-14  0.1150E-12  0.6910E-12  0.2460E-11  0.4370E-11  0.5410E-11  0.5230E-11  0.4930E-11  0.4670E-11  0.4250E-11  0.3710E-11  0.3020E-11  0.2410E-11  0.2100E-11
  0.1000E+14  0.8810E-14  0.1100E-12  0.6730E-12  0.2540E-11  0.4720E-11  0.5870E-11  0.5600E-11  0.5200E-11  0.4880E-11  0.4380E-11  0.3760E-11  0.2990E-11  0.2340E-11  0.2020E-11
  0.1000E+15  0.7600E-14  0.9980E-13  0.7650E-12  0.3790E-11  0.7500E-11  0.9330E-11  0.8830E-11  0.8170E-11  0.7630E-11  0.6810E-11  0.5800E-11  0.4530E-11  0.3460E-11  0.2920E-11
  0.1000E+16  0.8510E-14  0.1310E-12  0.1220E-11  0.5460E-11  0.9750E-11  0.1150E-10  0.1080E-10  0.9990E-11  0.9380E-11  0.8460E-11  0.7330E-11  0.5890E-11  0.4660E-11  0.4030E-11
  0.1000E+17  0.1200E-13  0.1790E-12  0.1410E-11  0.5460E-11  0.9180E-11  0.1030E-10  0.9360E-11  0.8600E-11  0.8050E-11  0.7280E-11  0.6360E-11  0.5230E-11  0.4250E-11  0.3730E-11
WAVELENGTH(A)= 
    30.548
 7 14 t 
excit   
    48.400     72.600    121.000    242.000    484.000   1210.000   2420.000   3630.000   4840.000   7260.000  12100.000  24200.000  48400.000  72600.000 
  0.1000E+11  0.1630E-13  0.2540E-12  0.2110E-11  0.8240E-11  0.1390E-10  0.1600E-10  0.1500E-10  0.1390E-10  0.1300E-10  0.1180E-10  0.1020E-10  0.8230E-11  0.6570E-11  0.5680E-11
  0.1000E+12  0.1630E-13  0.2540E-12  0.2110E-11  0.8220E-11  0.1390E-10  0.1600E-10  0.1490E-10  0.1390E-10  0.1300E-10  0.1170E-10  0.1020E-10  0.8180E-11  0.6530E-11  0.5640E-11
  0.1000E+13  0.1640E-13  0.2540E-12  0.2110E-11  0.8210E-11  0.1380E-10  0.1600E-10  0.1500E-10  0.1400E-10  0.1310E-10  0.1180E-10  0.1030E-10  0.8240E-11  0.6570E-11  0.5680E-11
  0.1000E+14  0.1670E-13  0.2580E-12  0.2110E-11  0.8290E-11  0.1430E-10  0.1690E-10  0.1600E-10  0.1490E-10  0.1400E-10  0.1260E-10  0.1090E-10  0.8740E-11  0.6930E-11  0.5980E-11
  0.1000E+15  0.1810E-13  0.2730E-12  0.2230E-11  0.9430E-11  0.1700E-10  0.2050E-10  0.1950E-10  0.1810E-10  0.1700E-10  0.1540E-10  0.1330E-10  0.1060E-10  0.8320E-11  0.7150E-11
  0.1000E+16  0.2090E-13  0.3200E-12  0.2640E-11  0.1090E-10  0.1900E-10  0.2240E-10  0.2110E-10  0.1970E-10  0.1850E-10  0.1680E-10  0.1460E-10  0.1190E-10  0.9480E-11  0.8240E-11
  0.1000E+17  0.2500E-13  0.3650E-12  0.2710E-11  0.1040E-10  0.1740E-10  0.1970E-10  0.1810E-10  0.1670E-10  0.1560E-10  0.1420E-10  0.1250E-10  0.1030E-10  0.8370E-11  0.7380E-11
WAVELENGTH(A)= 
    30.671
 7 14 t 
excit   
    48.400     72.600    121.000    242.000    484.000   1210.000   2420.000   3630.000   4840.000   7260.000  12100.000  24200.000  48400.000  72600.000 
  0.1000E+11  0.1590E-13  0.2220E-12  0.1690E-11  0.6190E-11  0.1010E-10  0.1140E-10  0.1050E-10  0.9670E-11  0.9040E-11  0.8150E-11  0.7040E-11  0.5670E-11  0.4500E-11  0.3910E-11
  0.1000E+12  0.1590E-13  0.2220E-12  0.1690E-11  0.6180E-11  0.1000E-10  0.1130E-10  0.1040E-10  0.9610E-11  0.8980E-11  0.8100E-11  0.6990E-11  0.5630E-11  0.4460E-11  0.3880E-11
  0.1000E+13  0.1590E-13  0.2220E-12  0.1680E-11  0.6090E-11  0.9820E-11  0.1100E-10  0.1020E-10  0.9410E-11  0.8800E-11  0.7950E-11  0.6880E-11  0.5560E-11  0.4410E-11  0.3840E-11
  0.1000E+14  0.1610E-13  0.2210E-12  0.1620E-11  0.5590E-11  0.8730E-11  0.9680E-11  0.8990E-11  0.8350E-11  0.7850E-11  0.7150E-11  0.6260E-11  0.5130E-11  0.4130E-11  0.3620E-11
  0.1000E+15  0.1620E-13  0.2130E-12  0.1370E-11  0.3890E-11  0.5420E-11  0.5740E-11  0.5330E-11  0.4990E-11  0.4730E-11  0.4380E-11  0.3930E-11  0.3360E-11  0.2830E-11  0.2550E-11
  0.1000E+16  0.1330E-13  0.1530E-12  0.7320E-12  0.1870E-11  0.2800E-11  0.3130E-11  0.2940E-11  0.2750E-11  0.2600E-11  0.2390E-11  0.2120E-11  0.1780E-11  0.1480E-11  0.1330E-11
  0.1000E+17  0.6360E-14  0.6980E-13  0.3950E-12  0.1350E-11  0.2180E-11  0.2460E-11  0.2260E-11  0.2100E-11  0.1970E-11  0.1800E-11  0.1590E-11  0.1320E-11  0.1080E-11  0.9610E-12
WAVELENGTH(A)= 
    30.745
 7 14 t 
excit   
    48.400     72.600    121.000    242.000    484.000   1210.000   2420.000   3630.000   4840.000   7260.000  12100.000  24200.000  48400.000  72600.000 
  0.1000E+11  0.4920E-14  0.6140E-13  0.3690E-12  0.1310E-11  0.2340E-11  0.2930E-11  0.2870E-11  0.2710E-11  0.2570E-11  0.2340E-11  0.2050E-11  0.1660E-11  0.1320E-11  0.1150E-11
  0.1000E+12  0.4920E-14  0.6140E-13  0.3690E-12  0.1310E-11  0.2340E-11  0.2920E-11  0.2860E-11  0.2700E-11  0.2560E-11  0.2330E-11  0.2040E-11  0.1660E-11  0.1320E-11  0.1150E-11
  0.1000E+13  0.4890E-14  0.6100E-13  0.3670E-12  0.1300E-11  0.2320E-11  0.2870E-11  0.2780E-11  0.2620E-11  0.2480E-11  0.2260E-11  0.1970E-11  0.1600E-11  0.1280E-11  0.1110E-11
  0.1000E+14  0.4680E-14  0.5820E-13  0.3570E-12  0.1350E-11  0.2510E-11  0.3120E-11  0.2970E-11  0.2760E-11  0.2590E-11  0.2330E-11  0.2000E-11  0.1590E-11  0.1240E-11  0.1070E-11
  0.1000E+15  0.4040E-14  0.5300E-13  0.4060E-12  0.2010E-11  0.3980E-11  0.4960E-11  0.4690E-11  0.4340E-11  0.4050E-11  0.3620E-11  0.3080E-11  0.2400E-11  0.1840E-11  0.1550E-11
  0.1000E+16  0.4520E-14  0.6960E-13  0.6470E-12  0.2900E-11  0.5180E-11  0.6120E-11  0.5730E-11  0.5310E-11  0.4980E-11  0.4490E-11  0.3890E-11  0.3130E-11  0.2480E-11  0.2140E-11
  0.1000E+17  0.6360E-14  0.9510E-13  0.7470E-12  0.2900E-11  0.4880E-11  0.5480E-11  0.4970E-11  0.4570E-11  0.4280E-11  0.3870E-11  0.3380E-11  0.2780E-11  0.2250E-11  0.1980E-11
WAVELENGTH(A)= 
    31.085
 7 14 t 
excit   
    48.400     72.600    121.000    242.000    484.000   1210.000   2420.000   3630.000   4840.000   7260.000  12100.000  24200.000  48400.000  72600.000 
  0.1000E+11  0.3380E-14  0.5000E-13  0.4020E-12  0.1530E-11  0.2540E-11  0.2880E-11  0.2670E-11  0.2470E-11  0.2310E-11  0.2080E-11  0.1800E-11  0.1450E-11  0.1150E-11  0.1000E-11
  0.1000E+12  0.3380E-14  0.5000E-13  0.4020E-12  0.1520E-11  0.2530E-11  0.2870E-11  0.2650E-11  0.2460E-11  0.2290E-11  0.2070E-11  0.1790E-11  0.1440E-11  0.1140E-11  0.9950E-12
  0.1000E+13  0.3380E-14  0.5000E-13  0.4000E-12  0.1500E-11  0.2470E-11  0.2800E-11  0.2590E-11  0.2400E-11  0.2250E-11  0.2030E-11  0.1760E-11  0.1420E-11  0.1130E-11  0.9850E-12
  0.1000E+14  0.3410E-14  0.4980E-13  0.3860E-12  0.1380E-11  0.2190E-11  0.2450E-11  0.2280E-11  0.2130E-11  0.2000E-11  0.1820E-11  0.1600E-11  0.1310E-11  0.1060E-11  0.9290E-12
  0.1000E+15  0.3440E-14  0.4800E-13  0.3270E-12  0.9560E-12  0.1360E-11  0.1450E-11  0.1350E-11  0.1270E-11  0.1200E-11  0.1110E-11  0.1000E-11  0.8560E-12  0.7240E-12  0.6520E-12
  0.1000E+16  0.2830E-14  0.3450E-13  0.1740E-12  0.4580E-12  0.6990E-12  0.7880E-12  0.7410E-12  0.6960E-12  0.6580E-12  0.6040E-12  0.5380E-12  0.4520E-12  0.3770E-12  0.3380E-12
  0.1000E+17  0.1340E-14  0.1560E-13  0.9320E-13  0.3270E-12  0.5410E-12  0.6120E-12  0.5640E-12  0.5250E-12  0.4930E-12  0.4500E-12  0.3970E-12  0.3310E-12  0.2730E-12  0.2420E-12
WAVELENGTH(A)= 
    31.356
 7 14 t 
excit   
    48.400     72.600    121.000    242.000    484.000   1210.000   2420.000   3630.000   4840.000   7260.000  12100.000  24200.000  48400.000  72600.000 
  0.1000E+11  0.2850E-13  0.3740E-12  0.2720E-11  0.9580E-11  0.1540E-10  0.1710E-10  0.1570E-10  0.1450E-10  0.1350E-10  0.1220E-10  0.1050E-10  0.8440E-11  0.6700E-11  0.5830E-11
  0.1000E+12  0.2850E-13  0.3740E-12  0.2720E-11  0.9550E-11  0.1530E-10  0.1700E-10  0.1560E-10  0.1440E-10  0.1340E-10  0.1210E-10  0.1040E-10  0.8380E-11  0.6650E-11  0.5780E-11
  0.1000E+13  0.2850E-13  0.3740E-12  0.2700E-11  0.9420E-11  0.1500E-10  0.1660E-10  0.1530E-10  0.1410E-10  0.1320E-10  0.1190E-10  0.1030E-10  0.8280E-11  0.6580E-11  0.5730E-11
  0.1000E+14  0.2880E-13  0.3730E-12  0.2610E-11  0.8670E-11  0.1330E-10  0.1460E-10  0.1350E-10  0.1250E-10  0.1180E-10  0.1070E-10  0.9350E-11  0.7650E-11  0.6170E-11  0.5410E-11
  0.1000E+15  0.2910E-13  0.3600E-12  0.2210E-11  0.6010E-11  0.8230E-11  0.8600E-11  0.7940E-11  0.7430E-11  0.7040E-11  0.6510E-11  0.5840E-11  0.4980E-11  0.4200E-11  0.3790E-11
  0.1000E+16  0.2390E-13  0.2580E-12  0.1170E-11  0.2850E-11  0.4180E-11  0.4620E-11  0.4310E-11  0.4030E-11  0.3810E-11  0.3500E-11  0.3110E-11  0.2610E-11  0.2170E-11  0.1950E-11
  0.1000E+17  0.1120E-13  0.1150E-12  0.6210E-12  0.2030E-11  0.3240E-11  0.3610E-11  0.3300E-11  0.3060E-11  0.2870E-11  0.2620E-11  0.2310E-11  0.1910E-11  0.1570E-11  0.1400E-11
WAVELENGTH(A)= 
    31.416
 7 14 t 
excit   
    48.400     72.600    121.000    242.000    484.000   1210.000   2420.000   3630.000   4840.000   7260.000  12100.000  24200.000  48400.000  72600.000 
  0.1000E+11  0.4160E-13  0.4740E-12  0.2620E-11  0.8840E-11  0.1530E-10  0.1890E-10  0.1850E-10  0.1740E-10  0.1650E-10  0.1500E-10  0.1310E-10  0.1060E-10  0.8440E-11  0.7340E-11
  0.1000E+12  0.4160E-13  0.4730E-12  0.2620E-11  0.8790E-11  0.1510E-10  0.1870E-10  0.1820E-10  0.1720E-10  0.1630E-10  0.1480E-10  0.1300E-10  0.1050E-10  0.8370E-11  0.7280E-11
  0.1000E+13  0.4120E-13  0.4670E-12  0.2570E-11  0.8400E-11  0.1410E-10  0.1700E-10  0.1640E-10  0.1540E-10  0.1460E-10  0.1340E-10  0.1170E-10  0.9620E-11  0.7740E-11  0.6780E-11
  0.1000E+14  0.3800E-13  0.4240E-12  0.2240E-11  0.7000E-11  0.1160E-10  0.1380E-10  0.1310E-10  0.1220E-10  0.1150E-10  0.1040E-10  0.9050E-11  0.7360E-11  0.5910E-11  0.5190E-11
  0.1000E+15  0.2740E-13  0.3070E-12  0.1860E-11  0.7540E-11  0.1380E-10  0.1670E-10  0.1560E-10  0.1440E-10  0.1350E-10  0.1200E-10  0.1030E-10  0.8140E-11  0.6290E-11  0.5380E-11
  0.1000E+16  0.2280E-13  0.2940E-12  0.2310E-11  0.9600E-11  0.1660E-10  0.1930E-10  0.1790E-10  0.1650E-10  0.1550E-10  0.1390E-10  0.1200E-10  0.9640E-11  0.7610E-11  0.6580E-11
  0.1000E+17  0.2590E-13  0.3460E-12  0.2560E-11  0.9600E-11  0.1570E-10  0.1740E-10  0.1560E-10  0.1430E-10  0.1330E-10  0.1200E-10  0.1050E-10  0.8570E-11  0.6930E-11  0.6090E-11
WAVELENGTH(A)= 
    31.795
 7 14 t 
excit   
    48.400     72.600    121.000    242.000    484.000   1210.000   2420.000   3630.000   4840.000   7260.000  12100.000  24200.000  48400.000  72600.000 
  0.1000E+11  0.2440E-13  0.3080E-12  0.2170E-11  0.7490E-11  0.1190E-10  0.1320E-10  0.1200E-10  0.1110E-10  0.1030E-10  0.9290E-11  0.8030E-11  0.6460E-11  0.5140E-11  0.4440E-11
  0.1000E+12  0.2440E-13  0.3080E-12  0.2170E-11  0.7460E-11  0.1180E-10  0.1310E-10  0.1200E-10  0.1100E-10  0.1030E-10  0.9230E-11  0.7970E-11  0.6410E-11  0.5090E-11  0.4400E-11
  0.1000E+13  0.2440E-13  0.3080E-12  0.2160E-11  0.7360E-11  0.1160E-10  0.1280E-10  0.1170E-10  0.1080E-10  0.1010E-10  0.9080E-11  0.7860E-11  0.6330E-11  0.5050E-11  0.4360E-11
  0.1000E+14  0.2460E-13  0.3070E-12  0.2090E-11  0.6790E-11  0.1040E-10  0.1130E-10  0.1040E-10  0.9650E-11  0.9060E-11  0.8220E-11  0.7180E-11  0.5880E-11  0.4750E-11  0.4130E-11
  0.1000E+15  0.2500E-13  0.2970E-12  0.1780E-11  0.4800E-11  0.6590E-11  0.6900E-11  0.6360E-11  0.5940E-11  0.5620E-11  0.5180E-11  0.4630E-11  0.3940E-11  0.3320E-11  0.2960E-11
  0.1000E+16  0.2080E-13  0.2170E-12  0.9850E-12  0.2440E-11  0.3600E-11  0.3970E-11  0.3690E-11  0.3450E-11  0.3250E-11  0.2970E-11  0.2630E-11  0.2200E-11  0.1830E-11  0.1620E-11
  0.1000E+17  0.1040E-13  0.1050E-12  0.5610E-12  0.1800E-11  0.2850E-11  0.3140E-11  0.2870E-11  0.2650E-11  0.2480E-11  0.2260E-11  0.1990E-11  0.1650E-11  0.1360E-11  0.1200E-11
WAVELENGTH(A)= 
    31.929
 7 14 t 
excit   
    48.400     72.600    121.000    242.000    484.000   1210.000   2420.000   3630.000   4840.000   7260.000  12100.000  24200.000  48400.000  72600.000 
  0.1000E+11  0.5570E-14  0.6150E-13  0.3350E-12  0.1110E-11  0.1900E-11  0.2340E-11  0.2280E-11  0.2150E-11  0.2030E-11  0.1850E-11  0.1610E-11  0.1310E-11  0.1040E-11  0.9070E-12
  0.1000E+12  0.5570E-14  0.6150E-13  0.3350E-12  0.1110E-11  0.1910E-11  0.2350E-11  0.2280E-11  0.2150E-11  0.2030E-11  0.1850E-11  0.1610E-11  0.1300E-11  0.1040E-11  0.9060E-12
  0.1000E+13  0.5540E-14  0.6120E-13  0.3350E-12  0.1130E-11  0.1970E-11  0.2410E-11  0.2320E-11  0.2180E-11  0.2050E-11  0.1860E-11  0.1610E-11  0.1300E-11  0.1030E-11  0.9010E-12
  0.1000E+14  0.5330E-14  0.5920E-13  0.3460E-12  0.1400E-11  0.2750E-11  0.3510E-11  0.3340E-11  0.3080E-11  0.2860E-11  0.2530E-11  0.2130E-11  0.1640E-11  0.1240E-11  0.1050E-11
  0.1000E+15  0.4990E-14  0.6260E-13  0.5570E-12  0.3290E-11  0.6720E-11  0.8430E-11  0.7940E-11  0.7340E-11  0.6810E-11  0.6040E-11  0.5090E-11  0.3900E-11  0.2900E-11  0.2410E-11
  0.1000E+16  0.8510E-14  0.1320E-12  0.1290E-11  0.5690E-11  0.9860E-11  0.1150E-10  0.1070E-10  0.9920E-11  0.9270E-11  0.8350E-11  0.7220E-11  0.5800E-11  0.4570E-11  0.3940E-11
  0.1000E+17  0.1670E-13  0.2250E-12  0.1600E-11  0.5800E-11  0.9380E-11  0.1040E-10  0.9370E-11  0.8620E-11  0.8050E-11  0.7270E-11  0.6350E-11  0.5210E-11  0.4230E-11  0.3720E-11
WAVELENGTH(A)= 
    32.361
 7 14 t 
excit   
    48.400     72.600    121.000    242.000    484.000   1210.000   2420.000   3630.000   4840.000   7260.000  12100.000  24200.000  48400.000  72600.000 
  0.1000E+11  0.2540E-13  0.3070E-12  0.2080E-11  0.6980E-11  0.1090E-10  0.1200E-10  0.1100E-10  0.1010E-10  0.9400E-11  0.8450E-11  0.7290E-11  0.5860E-11  0.4650E-11  0.4030E-11
  0.1000E+12  0.2540E-13  0.3060E-12  0.2080E-11  0.6960E-11  0.1090E-10  0.1190E-10  0.1090E-10  0.1000E-10  0.9340E-11  0.8390E-11  0.7240E-11  0.5820E-11  0.4610E-11  0.4000E-11
  0.1000E+13  0.2540E-13  0.3060E-12  0.2070E-11  0.6860E-11  0.1060E-10  0.1160E-10  0.1070E-10  0.9820E-11  0.9160E-11  0.8240E-11  0.7130E-11  0.5740E-11  0.4560E-11  0.3960E-11
  0.1000E+14  0.2560E-13  0.3050E-12  0.2000E-11  0.6300E-11  0.9460E-11  0.1020E-10  0.9390E-11  0.8710E-11  0.8160E-11  0.7410E-11  0.6480E-11  0.5300E-11  0.4270E-11  0.3730E-11
  0.1000E+15  0.2590E-13  0.2940E-12  0.1690E-11  0.4380E-11  0.5870E-11  0.6060E-11  0.5570E-11  0.5200E-11  0.4920E-11  0.4540E-11  0.4070E-11  0.3470E-11  0.2920E-11  0.2630E-11
  0.1000E+16  0.2130E-13  0.2110E-12  0.9010E-12  0.2110E-11  0.3030E-11  0.3300E-11  0.3070E-11  0.2870E-11  0.2700E-11  0.2480E-11  0.2190E-11  0.1840E-11  0.1530E-11  0.1370E-11
  0.1000E+17  0.1010E-13  0.9610E-13  0.4860E-12  0.1520E-11  0.2370E-11  0.2600E-11  0.2370E-11  0.2190E-11  0.2050E-11  0.1870E-11  0.1640E-11  0.1360E-11  0.1120E-11  0.9910E-12
WAVELENGTH(A)= 
    32.696
 7 14 t 
excit   
    48.400     72.600    121.000    242.000    484.000   1210.000   2420.000   3630.000   4840.000   7260.000  12100.000  24200.000  48400.000  72600.000 
  0.1000E+11  0.3210E-13  0.3260E-12  0.1670E-11  0.5280E-11  0.8840E-11  0.1080E-10  0.1040E-10  0.9830E-11  0.9300E-11  0.8450E-11  0.7360E-11  0.5960E-11  0.4730E-11  0.4110E-11
  0.1000E+12  0.3200E-13  0.3250E-12  0.1660E-11  0.5250E-11  0.8760E-11  0.1060E-10  0.1030E-10  0.9690E-11  0.9170E-11  0.8340E-11  0.7270E-11  0.5890E-11  0.4690E-11  0.4080E-11
  0.1000E+13  0.3170E-13  0.3220E-12  0.1630E-11  0.5020E-11  0.8150E-11  0.9660E-11  0.9240E-11  0.8700E-11  0.8240E-11  0.7520E-11  0.6590E-11  0.5390E-11  0.4340E-11  0.3800E-11
  0.1000E+14  0.2930E-13  0.2920E-12  0.1420E-11  0.4180E-11  0.6720E-11  0.7840E-11  0.7370E-11  0.6870E-11  0.6460E-11  0.5840E-11  0.5080E-11  0.4120E-11  0.3320E-11  0.2910E-11
  0.1000E+15  0.2110E-13  0.2110E-12  0.1180E-11  0.4510E-11  0.8000E-11  0.9490E-11  0.8820E-11  0.8150E-11  0.7590E-11  0.6790E-11  0.5790E-11  0.4560E-11  0.3530E-11  0.3010E-11
  0.1000E+16  0.1760E-13  0.2020E-12  0.1470E-11  0.5740E-11  0.9610E-11  0.1100E-10  0.1010E-10  0.9330E-11  0.8710E-11  0.7830E-11  0.6750E-11  0.5410E-11  0.4270E-11  0.3690E-11
  0.1000E+17  0.1990E-13  0.2380E-12  0.1630E-11  0.5750E-11  0.9110E-11  0.9910E-11  0.8840E-11  0.8100E-11  0.7540E-11  0.6790E-11  0.5900E-11  0.4820E-11  0.3900E-11  0.3420E-11
WAVELENGTH(A)= 
    33.422
 7 14 t 
excit   
    48.400     72.600    121.000    242.000    484.000   1210.000   2420.000   3630.000   4840.000   7260.000  12100.000  24200.000  48400.000  72600.000 
  0.1000E+11  0.8710E-14  0.9610E-13  0.6130E-12  0.1960E-11  0.2980E-11  0.3230E-11  0.2930E-11  0.2690E-11  0.2510E-11  0.2250E-11  0.1930E-11  0.1550E-11  0.1230E-11  0.1070E-11
  0.1000E+12  0.8710E-14  0.9610E-13  0.6120E-12  0.1950E-11  0.2970E-11  0.3220E-11  0.2910E-11  0.2680E-11  0.2500E-11  0.2230E-11  0.1920E-11  0.1540E-11  0.1220E-11  0.1060E-11
  0.1000E+13  0.8720E-14  0.9610E-13  0.6090E-12  0.1930E-11  0.2910E-11  0.3160E-11  0.2860E-11  0.2630E-11  0.2460E-11  0.2200E-11  0.1900E-11  0.1530E-11  0.1210E-11  0.1050E-11
  0.1000E+14  0.8830E-14  0.9620E-13  0.5930E-12  0.1790E-11  0.2630E-11  0.2820E-11  0.2570E-11  0.2380E-11  0.2230E-11  0.2010E-11  0.1750E-11  0.1430E-11  0.1150E-11  0.1000E-11
  0.1000E+15  0.9050E-14  0.9400E-13  0.5110E-12  0.1280E-11  0.1700E-11  0.1750E-11  0.1590E-11  0.1490E-11  0.1410E-11  0.1290E-11  0.1150E-11  0.9730E-12  0.8140E-12  0.7290E-12
  0.1000E+16  0.7580E-14  0.6950E-13  0.2870E-12  0.6680E-12  0.9500E-12  0.1030E-11  0.9480E-12  0.8830E-12  0.8330E-12  0.7580E-12  0.6680E-12  0.5570E-12  0.4590E-12  0.4080E-12
  0.1000E+17  0.3880E-14  0.3440E-13  0.1680E-12  0.5040E-12  0.7670E-12  0.8310E-12  0.7530E-12  0.6940E-12  0.6510E-12  0.5890E-12  0.5160E-12  0.4260E-12  0.3480E-12  0.3070E-12
WAVELENGTH(A)= 
   150.083
 7 14 t 
excit   
    48.400     72.600    121.000    242.000    484.000   1210.000   2420.000   3630.000   4840.000   7260.000  12100.000  24200.000  48400.000  72600.000 
  0.1000E+11  0.1110E-12  0.2060E-12  0.4610E-12  0.1100E-11  0.1670E-11  0.2040E-11  0.2130E-11  0.2100E-11  0.2050E-11  0.1940E-11  0.1770E-11  0.1510E-11  0.1250E-11  0.1110E-11
  0.1000E+12  0.1110E-12  0.2060E-12  0.4620E-12  0.1100E-11  0.1680E-11  0.2070E-11  0.2180E-11  0.2160E-11  0.2120E-11  0.2010E-11  0.1840E-11  0.1580E-11  0.1320E-11  0.1170E-11
  0.1000E+13  0.1100E-12  0.2060E-12  0.4600E-12  0.1100E-11  0.1680E-11  0.2090E-11  0.2230E-11  0.2230E-11  0.2180E-11  0.2080E-11  0.1910E-11  0.1640E-11  0.1370E-11  0.1220E-11
  0.1000E+14  0.1070E-12  0.1990E-12  0.4450E-12  0.1060E-11  0.1630E-11  0.2100E-11  0.2320E-11  0.2350E-11  0.2330E-11  0.2250E-11  0.2090E-11  0.1820E-11  0.1530E-11  0.1370E-11
  0.1000E+15  0.9490E-13  0.1790E-12  0.4050E-12  0.9270E-12  0.1410E-11  0.1930E-11  0.2270E-11  0.2370E-11  0.2380E-11  0.2350E-11  0.2230E-11  0.1990E-11  0.1710E-11  0.1540E-11
  0.1000E+16  0.8330E-13  0.1560E-12  0.3320E-12  0.7830E-12  0.1280E-11  0.1910E-11  0.2340E-11  0.2470E-11  0.2500E-11  0.2480E-11  0.2370E-11  0.2140E-11  0.1850E-11  0.1680E-11
  0.1000E+17  0.7350E-13  0.1410E-12  0.3230E-12  0.8100E-12  0.1290E-11  0.1820E-11  0.2140E-11  0.2230E-11  0.2260E-11  0.2240E-11  0.2160E-11  0.1980E-11  0.1760E-11  0.1620E-11
WAVELENGTH(A)= 
   160.473
 7 14 t 
excit   
    48.400     72.600    121.000    242.000    484.000   1210.000   2420.000   3630.000   4840.000   7260.000  12100.000  24200.000  48400.000  72600.000 
  0.1000E+11  0.5080E-13  0.1000E-12  0.3450E-12  0.1140E-11  0.1990E-11  0.2570E-11  0.2640E-11  0.2580E-11  0.2490E-11  0.2340E-11  0.2120E-11  0.1790E-11  0.1480E-11  0.1310E-11
  0.1000E+12  0.5080E-13  0.9990E-13  0.3440E-12  0.1140E-11  0.1980E-11  0.2540E-11  0.2620E-11  0.2550E-11  0.2460E-11  0.2310E-11  0.2090E-11  0.1760E-11  0.1460E-11  0.1290E-11
  0.1000E+13  0.5080E-13  0.9960E-13  0.3420E-12  0.1120E-11  0.1920E-11  0.2450E-11  0.2520E-11  0.2460E-11  0.2380E-11  0.2240E-11  0.2030E-11  0.1720E-11  0.1430E-11  0.1260E-11
  0.1000E+14  0.5050E-13  0.9820E-13  0.3250E-12  0.9940E-12  0.1630E-11  0.2030E-11  0.2090E-11  0.2060E-11  0.2000E-11  0.1900E-11  0.1750E-11  0.1510E-11  0.1280E-11  0.1150E-11
  0.1000E+15  0.4870E-13  0.9040E-13  0.2580E-12  0.5900E-12  0.7830E-12  0.8740E-12  0.8900E-12  0.8850E-12  0.8760E-12  0.8560E-12  0.8230E-12  0.7660E-12  0.7000E-12  0.6580E-12
  0.1000E+16  0.3630E-13  0.5650E-13  0.9520E-13  0.1200E-12  0.1260E-12  0.1290E-12  0.1290E-12  0.1290E-12  0.1290E-12  0.1290E-12  0.1280E-12  0.1270E-12  0.1250E-12  0.1240E-12
  0.1000E+17  0.1000E-13  0.1160E-13  0.1240E-13  0.1230E-13  0.1210E-13  0.1160E-13  0.1130E-13  0.1120E-13  0.1120E-13  0.1120E-13  0.1130E-13  0.1150E-13  0.1170E-13  0.1180E-13
WAVELENGTH(A)= 
   165.311
 7 14 t 
excit   
    48.400     72.600    121.000    242.000    484.000   1210.000   2420.000   3630.000   4840.000   7260.000  12100.000  24200.000  48400.000  72600.000 
  0.1000E+11  0.1610E-12  0.2650E-12  0.4940E-12  0.1090E-11  0.1690E-11  0.2230E-11  0.2470E-11  0.2490E-11  0.2460E-11  0.2360E-11  0.2170E-11  0.1870E-11  0.1560E-11  0.1390E-11
  0.1000E+12  0.1610E-12  0.2650E-12  0.4960E-12  0.1110E-11  0.1730E-11  0.2300E-11  0.2570E-11  0.2620E-11  0.2590E-11  0.2500E-11  0.2320E-11  0.2010E-11  0.1690E-11  0.1520E-11
  0.1000E+13  0.1610E-12  0.2650E-12  0.4980E-12  0.1110E-11  0.1740E-11  0.2320E-11  0.2620E-11  0.2670E-11  0.2650E-11  0.2560E-11  0.2380E-11  0.2080E-11  0.1750E-11  0.1570E-11
  0.1000E+14  0.1600E-12  0.2640E-12  0.4990E-12  0.1110E-11  0.1740E-11  0.2350E-11  0.2680E-11  0.2740E-11  0.2730E-11  0.2650E-11  0.2470E-11  0.2160E-11  0.1830E-11  0.1650E-11
  0.1000E+15  0.1590E-12  0.2660E-12  0.5090E-12  0.1120E-11  0.1710E-11  0.2300E-11  0.2630E-11  0.2710E-11  0.2700E-11  0.2630E-11  0.2470E-11  0.2180E-11  0.1870E-11  0.1680E-11
  0.1000E+16  0.1670E-12  0.2860E-12  0.5320E-12  0.1030E-11  0.1470E-11  0.1910E-11  0.2180E-11  0.2250E-11  0.2260E-11  0.2220E-11  0.2120E-11  0.1910E-11  0.1670E-11  0.1530E-11
  0.1000E+17  0.1690E-12  0.2780E-12  0.4130E-12  0.5820E-12  0.7110E-12  0.8730E-12  0.9860E-12  0.1020E-11  0.1030E-11  0.1030E-11  0.1010E-11  0.9610E-12  0.8900E-12  0.8430E-12
WAVELENGTH(A)= 
   173.836
 7 14 t 
excit   
    48.400     72.600    121.000    242.000    484.000   1210.000   2420.000   3630.000   4840.000   7260.000  12100.000  24200.000  48400.000  72600.000 
  0.1000E+11  0.1240E-12  0.2180E-12  0.5530E-12  0.1610E-11  0.2780E-11  0.4120E-11  0.4970E-11  0.5230E-11  0.5290E-11  0.5240E-11  0.5010E-11  0.4520E-11  0.3930E-11  0.3570E-11
  0.1000E+12  0.1240E-12  0.2190E-12  0.5610E-12  0.1650E-11  0.2850E-11  0.4240E-11  0.5150E-11  0.5420E-11  0.5500E-11  0.5450E-11  0.5240E-11  0.4740E-11  0.4130E-11  0.3760E-11
  0.1000E+13  0.1240E-12  0.2210E-12  0.5700E-12  0.1660E-11  0.2850E-11  0.4250E-11  0.5170E-11  0.5460E-11  0.5540E-11  0.5510E-11  0.5300E-11  0.4800E-11  0.4200E-11  0.3830E-11
  0.1000E+14  0.1290E-12  0.2280E-12  0.5750E-12  0.1620E-11  0.2730E-11  0.4070E-11  0.5010E-11  0.5320E-11  0.5420E-11  0.5410E-11  0.5240E-11  0.4780E-11  0.4200E-11  0.3840E-11
  0.1000E+15  0.1460E-12  0.2460E-12  0.5530E-12  0.1370E-11  0.2190E-11  0.3320E-11  0.4210E-11  0.4540E-11  0.4670E-11  0.4730E-11  0.4640E-11  0.4310E-11  0.3850E-11  0.3550E-11
  0.1000E+16  0.1440E-12  0.2270E-12  0.4430E-12  0.1080E-11  0.1810E-11  0.2900E-11  0.3750E-11  0.4070E-11  0.4200E-11  0.4250E-11  0.4160E-11  0.3860E-11  0.3450E-11  0.3180E-11
  0.1000E+17  0.1190E-12  0.1900E-12  0.4070E-12  0.1120E-11  0.1920E-11  0.2910E-11  0.3570E-11  0.3790E-11  0.3870E-11  0.3880E-11  0.3780E-11  0.3510E-11  0.3140E-11  0.2910E-11
WAVELENGTH(A)= 
   175.015
 7 14 t 
excit   
    48.400     72.600    121.000    242.000    484.000   1210.000   2420.000   3630.000   4840.000   7260.000  12100.000  24200.000  48400.000  72600.000 
  0.1000E+11  0.3350E-13  0.5950E-13  0.1450E-12  0.4250E-12  0.7810E-12  0.1430E-11  0.2000E-11  0.2240E-11  0.2350E-11  0.2420E-11  0.2400E-11  0.2250E-11  0.2010E-11  0.1850E-11
  0.1000E+12  0.3360E-13  0.5970E-13  0.1460E-12  0.4280E-12  0.7880E-12  0.1430E-11  0.2010E-11  0.2240E-11  0.2350E-11  0.2420E-11  0.2400E-11  0.2250E-11  0.2010E-11  0.1850E-11
  0.1000E+13  0.3460E-13  0.6190E-13  0.1530E-12  0.4580E-12  0.8490E-12  0.1500E-11  0.2050E-11  0.2260E-11  0.2350E-11  0.2400E-11  0.2370E-11  0.2200E-11  0.1960E-11  0.1810E-11
  0.1000E+14  0.4320E-13  0.7920E-13  0.2010E-12  0.6040E-12  0.1100E-11  0.1800E-11  0.2320E-11  0.2480E-11  0.2540E-11  0.2530E-11  0.2420E-11  0.2180E-11  0.1890E-11  0.1720E-11
  0.1000E+15  0.7420E-13  0.1350E-12  0.3300E-12  0.9700E-12  0.1710E-11  0.2640E-11  0.3270E-11  0.3460E-11  0.3500E-11  0.3440E-11  0.3250E-11  0.2870E-11  0.2420E-11  0.2160E-11
  0.1000E+16  0.1220E-12  0.2350E-12  0.5480E-12  0.1240E-11  0.1850E-11  0.2610E-11  0.3150E-11  0.3330E-11  0.3380E-11  0.3380E-11  0.3270E-11  0.3000E-11  0.2650E-11  0.2440E-11
  0.1000E+17  0.1800E-12  0.3040E-12  0.4810E-12  0.7310E-12  0.9310E-12  0.1210E-11  0.1410E-11  0.1480E-11  0.1500E-11  0.1510E-11  0.1500E-11  0.1430E-11  0.1340E-11  0.1280E-11
WAVELENGTH(A)= 
   178.257
 7 14 t 
excit   
    48.400     72.600    121.000    242.000    484.000   1210.000   2420.000   3630.000   4840.000   7260.000  12100.000  24200.000  48400.000  72600.000 
  0.1000E+11  0.2290E-12  0.4090E-12  0.8440E-12  0.1830E-11  0.2730E-11  0.3550E-11  0.3970E-11  0.4030E-11  0.3990E-11  0.3840E-11  0.3560E-11  0.3090E-11  0.2600E-11  0.2330E-11
  0.1000E+12  0.2290E-12  0.4090E-12  0.8460E-12  0.1840E-11  0.2770E-11  0.3620E-11  0.4080E-11  0.4160E-11  0.4120E-11  0.3990E-11  0.3720E-11  0.3250E-11  0.2760E-11  0.2470E-11
  0.1000E+13  0.2300E-12  0.4090E-12  0.8470E-12  0.1830E-11  0.2740E-11  0.3610E-11  0.4080E-11  0.4170E-11  0.4150E-11  0.4020E-11  0.3760E-11  0.3300E-11  0.2810E-11  0.2520E-11
  0.1000E+14  0.2340E-12  0.4120E-12  0.8310E-12  0.1740E-11  0.2550E-11  0.3360E-11  0.3850E-11  0.3960E-11  0.3950E-11  0.3860E-11  0.3640E-11  0.3220E-11  0.2770E-11  0.2500E-11
  0.1000E+15  0.2430E-12  0.4090E-12  0.7340E-12  0.1330E-11  0.1830E-11  0.2400E-11  0.2790E-11  0.2910E-11  0.2930E-11  0.2900E-11  0.2780E-11  0.2520E-11  0.2230E-11  0.2040E-11
  0.1000E+16  0.2060E-12  0.3090E-12  0.4440E-12  0.8200E-12  0.1260E-11  0.1780E-11  0.2110E-11  0.2210E-11  0.2230E-11  0.2200E-11  0.2090E-11  0.1880E-11  0.1640E-11  0.1490E-11
  0.1000E+17  0.1090E-12  0.1650E-12  0.2990E-12  0.6780E-12  0.1040E-11  0.1420E-11  0.1650E-11  0.1720E-11  0.1730E-11  0.1720E-11  0.1660E-11  0.1520E-11  0.1350E-11  0.1240E-11
WAVELENGTH(A)= 
   182.118
 7 14 t 
excit   
    48.400     72.600    121.000    242.000    484.000   1210.000   2420.000   3630.000   4840.000   7260.000  12100.000  24200.000  48400.000  72600.000 
  0.1000E+11  0.1720E-12  0.2360E-12  0.3240E-12  0.6030E-12  0.9810E-12  0.1790E-11  0.2580E-11  0.2900E-11  0.3050E-11  0.3140E-11  0.3120E-11  0.2910E-11  0.2590E-11  0.2370E-11
  0.1000E+12  0.1720E-12  0.2360E-12  0.3230E-12  0.6010E-12  0.9780E-12  0.1780E-11  0.2560E-11  0.2880E-11  0.3030E-11  0.3120E-11  0.3090E-11  0.2890E-11  0.2570E-11  0.2360E-11
  0.1000E+13  0.1700E-12  0.2330E-12  0.3190E-12  0.5890E-12  0.9480E-12  0.1690E-11  0.2410E-11  0.2700E-11  0.2830E-11  0.2910E-11  0.2890E-11  0.2710E-11  0.2430E-11  0.2240E-11
  0.1000E+14  0.1550E-12  0.2110E-12  0.2910E-12  0.5550E-12  0.9090E-12  0.1600E-11  0.2200E-11  0.2440E-11  0.2530E-11  0.2560E-11  0.2510E-11  0.2310E-11  0.2040E-11  0.1880E-11
  0.1000E+15  0.1160E-12  0.1660E-12  0.2780E-12  0.6650E-12  0.1170E-11  0.2050E-11  0.2780E-11  0.3040E-11  0.3130E-11  0.3140E-11  0.3020E-11  0.2710E-11  0.2320E-11  0.2080E-11
  0.1000E+16  0.1080E-12  0.1760E-12  0.3630E-12  0.8990E-12  0.1530E-11  0.2560E-11  0.3380E-11  0.3670E-11  0.3770E-11  0.3780E-11  0.3650E-11  0.3310E-11  0.2880E-11  0.2610E-11
  0.1000E+17  0.1320E-12  0.2250E-12  0.4620E-12  0.1100E-11  0.1750E-11  0.2580E-11  0.3140E-11  0.3320E-11  0.3370E-11  0.3370E-11  0.3280E-11  0.3030E-11  0.2710E-11  0.2500E-11
WAVELENGTH(A)= 
   198.162
 7 14 t 
excit   
    48.400     72.600    121.000    242.000    484.000   1210.000   2420.000   3630.000   4840.000   7260.000  12100.000  24200.000  48400.000  72600.000 
  0.1000E+11  0.1640E-12  0.2310E-12  0.3690E-12  0.8290E-12  0.1440E-11  0.2630E-11  0.3720E-11  0.4170E-11  0.4360E-11  0.4480E-11  0.4420E-11  0.4120E-11  0.3650E-11  0.3350E-11
  0.1000E+12  0.1640E-12  0.2300E-12  0.3680E-12  0.8270E-12  0.1430E-11  0.2620E-11  0.3700E-11  0.4140E-11  0.4340E-11  0.4450E-11  0.4400E-11  0.4100E-11  0.3640E-11  0.3340E-11
  0.1000E+13  0.1630E-12  0.2280E-12  0.3630E-12  0.8110E-12  0.1390E-11  0.2520E-11  0.3540E-11  0.3950E-11  0.4140E-11  0.4250E-11  0.4200E-11  0.3920E-11  0.3500E-11  0.3220E-11
  0.1000E+14  0.1520E-12  0.2100E-12  0.3350E-12  0.7680E-12  0.1350E-11  0.2450E-11  0.3400E-11  0.3760E-11  0.3910E-11  0.3980E-11  0.3890E-11  0.3590E-11  0.3170E-11  0.2900E-11
  0.1000E+15  0.1130E-12  0.1630E-12  0.3220E-12  0.9600E-12  0.1820E-11  0.3280E-11  0.4470E-11  0.4900E-11  0.5050E-11  0.5090E-11  0.4920E-11  0.4430E-11  0.3810E-11  0.3430E-11
  0.1000E+16  0.1050E-12  0.1810E-12  0.4550E-12  0.1330E-11  0.2380E-11  0.4050E-11  0.5380E-11  0.5850E-11  0.6030E-11  0.6080E-11  0.5910E-11  0.5400E-11  0.4740E-11  0.4320E-11
  0.1000E+17  0.1400E-12  0.2470E-12  0.5870E-12  0.1590E-11  0.2610E-11  0.3930E-11  0.4830E-11  0.5130E-11  0.5240E-11  0.5260E-11  0.5140E-11  0.4790E-11  0.4320E-11  0.4010E-11
WAVELENGTH(A)= 
   211.273
 7 14 t 
excit   
    48.400     72.600    121.000    242.000    484.000   1210.000   2420.000   3630.000   4840.000   7260.000  12100.000  24200.000  48400.000  72600.000 
  0.1000E+11  0.2090E-12  0.3310E-12  0.5700E-12  0.1070E-11  0.1530E-11  0.1930E-11  0.2100E-11  0.2110E-11  0.2070E-11  0.1980E-11  0.1820E-11  0.1570E-11  0.1310E-11  0.1170E-11
  0.1000E+12  0.2090E-12  0.3310E-12  0.5700E-12  0.1070E-11  0.1540E-11  0.1940E-11  0.2110E-11  0.2120E-11  0.2090E-11  0.2000E-11  0.1840E-11  0.1580E-11  0.1320E-11  0.1180E-11
  0.1000E+13  0.2090E-12  0.3310E-12  0.5700E-12  0.1080E-11  0.1560E-11  0.2010E-11  0.2230E-11  0.2260E-11  0.2230E-11  0.2140E-11  0.1970E-11  0.1690E-11  0.1400E-11  0.1250E-11
  0.1000E+14  0.2120E-12  0.3340E-12  0.5740E-12  0.1090E-11  0.1610E-11  0.2160E-11  0.2490E-11  0.2570E-11  0.2560E-11  0.2490E-11  0.2320E-11  0.2010E-11  0.1690E-11  0.1500E-11
  0.1000E+15  0.2180E-12  0.3370E-12  0.5500E-12  0.1010E-11  0.1500E-11  0.2120E-11  0.2560E-11  0.2700E-11  0.2730E-11  0.2700E-11  0.2560E-11  0.2280E-11  0.1950E-11  0.1750E-11
  0.1000E+16  0.1950E-12  0.2830E-12  0.4320E-12  0.8840E-12  0.1410E-11  0.2100E-11  0.2590E-11  0.2760E-11  0.2800E-11  0.2790E-11  0.2670E-11  0.2410E-11  0.2090E-11  0.1900E-11
  0.1000E+17  0.1300E-12  0.1990E-12  0.3720E-12  0.8650E-12  0.1360E-11  0.1940E-11  0.2320E-11  0.2440E-11  0.2470E-11  0.2460E-11  0.2380E-11  0.2190E-11  0.1940E-11  0.1790E-11
WAVELENGTH(A)= 
   872.108
 7 14 t 
excit   
    48.400     72.600    121.000    242.000    484.000   1210.000   2420.000   3630.000   4840.000   7260.000  12100.000  24200.000  48400.000  72600.000 
  0.1000E+11  0.1430E-11  0.2820E-11  0.9730E-11  0.3220E-10  0.5620E-10  0.7230E-10  0.7450E-10  0.7260E-10  0.7030E-10  0.6600E-10  0.5960E-10  0.5040E-10  0.4170E-10  0.3700E-10
  0.1000E+12  0.1430E-11  0.2820E-11  0.9700E-11  0.3210E-10  0.5580E-10  0.7170E-10  0.7370E-10  0.7180E-10  0.6940E-10  0.6510E-10  0.5880E-10  0.4960E-10  0.4100E-10  0.3630E-10
  0.1000E+13  0.1430E-11  0.2810E-11  0.9620E-11  0.3140E-10  0.5410E-10  0.6900E-10  0.7110E-10  0.6930E-10  0.6720E-10  0.6310E-10  0.5720E-10  0.4850E-10  0.4020E-10  0.3560E-10
  0.1000E+14  0.1420E-11  0.2770E-11  0.9160E-11  0.2800E-10  0.4590E-10  0.5720E-10  0.5900E-10  0.5790E-10  0.5650E-10  0.5360E-10  0.4920E-10  0.4260E-10  0.3600E-10  0.3230E-10
  0.1000E+15  0.1370E-11  0.2550E-11  0.7280E-11  0.1660E-10  0.2210E-10  0.2460E-10  0.2510E-10  0.2490E-10  0.2470E-10  0.2410E-10  0.2320E-10  0.2160E-10  0.1970E-10  0.1850E-10
  0.1000E+16  0.1020E-11  0.1590E-11  0.2680E-11  0.3380E-11  0.3560E-11  0.3620E-11  0.3640E-11  0.3640E-11  0.3630E-11  0.3630E-11  0.3610E-11  0.3580E-11  0.3540E-11  0.3500E-11
  0.1000E+17  0.2830E-12  0.3270E-12  0.3490E-12  0.3470E-12  0.3400E-12  0.3280E-12  0.3200E-12  0.3170E-12  0.3160E-12  0.3170E-12  0.3190E-12  0.3230E-12  0.3300E-12  0.3330E-12
WAVELENGTH(A)= 
  2342.950
 7 14 t 
excit   
    48.400     72.600    121.000    242.000    484.000   1210.000   2420.000   3630.000   4840.000   7260.000  12100.000  24200.000  48400.000  72600.000 
  0.1000E+11  0.2050E-11  0.2860E-11  0.5790E-11  0.1560E-10  0.2780E-10  0.3800E-10  0.4050E-10  0.4010E-10  0.3910E-10  0.3690E-10  0.3350E-10  0.2830E-10  0.2340E-10  0.2070E-10
  0.1000E+12  0.2040E-11  0.2860E-11  0.5770E-11  0.1540E-10  0.2720E-10  0.3690E-10  0.3930E-10  0.3890E-10  0.3790E-10  0.3590E-10  0.3260E-10  0.2770E-10  0.2300E-10  0.2040E-10
  0.1000E+13  0.2010E-11  0.2790E-11  0.5510E-11  0.1370E-10  0.2230E-10  0.2880E-10  0.3030E-10  0.3000E-10  0.2940E-10  0.2820E-10  0.2610E-10  0.2280E-10  0.1940E-10  0.1750E-10
  0.1000E+14  0.1730E-11  0.2290E-11  0.3830E-11  0.6580E-11  0.8330E-11  0.9330E-11  0.9570E-11  0.9540E-11  0.9480E-11  0.9300E-11  0.9000E-11  0.8480E-11  0.7880E-11  0.7500E-11
  0.1000E+15  0.7190E-12  0.8310E-12  0.1000E-11  0.1230E-11  0.1350E-11  0.1420E-11  0.1440E-11  0.1440E-11  0.1440E-11  0.1430E-11  0.1410E-11  0.1370E-11  0.1330E-11  0.1300E-11
  0.1000E+16  0.1120E-12  0.1250E-12  0.1420E-12  0.1540E-12  0.1570E-12  0.1590E-12  0.1600E-12  0.1600E-12  0.1600E-12  0.1600E-12  0.1600E-12  0.1590E-12  0.1590E-12  0.1590E-12
  0.1000E+17  0.1310E-13  0.1460E-13  0.1510E-13  0.1470E-13  0.1430E-13  0.1380E-13  0.1340E-13  0.1330E-13  0.1330E-13  0.1330E-13  0.1340E-13  0.1360E-13  0.1390E-13  0.1410E-13
WAVELENGTH(A)= 
  4288.850
 7 14 t 
excit   
    48.400     72.600    121.000    242.000    484.000   1210.000   2420.000   3630.000   4840.000   7260.000  12100.000  24200.000  48400.000  72600.000 
  0.1000E+11  0.4740E-12  0.6630E-12  0.1340E-11  0.3610E-11  0.6430E-11  0.8800E-11  0.9390E-11  0.9270E-11  0.9040E-11  0.8540E-11  0.7750E-11  0.6560E-11  0.5410E-11  0.4790E-11
  0.1000E+12  0.4730E-12  0.6610E-12  0.1340E-11  0.3570E-11  0.6290E-11  0.8550E-11  0.9110E-11  0.9000E-11  0.8780E-11  0.8300E-11  0.7550E-11  0.6420E-11  0.5320E-11  0.4720E-11
  0.1000E+13  0.4650E-12  0.6470E-12  0.1280E-11  0.3170E-11  0.5170E-11  0.6660E-11  0.7010E-11  0.6950E-11  0.6820E-11  0.6520E-11  0.6040E-11  0.5280E-11  0.4500E-11  0.4060E-11
  0.1000E+14  0.4000E-12  0.5300E-12  0.8860E-12  0.1520E-11  0.1930E-11  0.2160E-11  0.2220E-11  0.2210E-11  0.2190E-11  0.2150E-11  0.2080E-11  0.1960E-11  0.1820E-11  0.1740E-11
  0.1000E+15  0.1670E-12  0.1920E-12  0.2320E-12  0.2840E-12  0.3130E-12  0.3300E-12  0.3340E-12  0.3340E-12  0.3330E-12  0.3310E-12  0.3260E-12  0.3180E-12  0.3080E-12  0.3020E-12
  0.1000E+16  0.2580E-13  0.2900E-13  0.3290E-13  0.3560E-13  0.3640E-13  0.3690E-13  0.3700E-13  0.3700E-13  0.3700E-13  0.3700E-13  0.3700E-13  0.3690E-13  0.3680E-13  0.3670E-13
  0.1000E+17  0.3030E-14  0.3370E-14  0.3490E-14  0.3400E-14  0.3310E-14  0.3190E-14  0.3100E-14  0.3070E-14  0.3070E-14  0.3070E-14  0.3100E-14  0.3150E-14  0.3220E-14  0.3260E-14
