 50  7 14
WAVELENGTH(A)= 
    50.522
 7 14 t 
excit   
     7.600     11.400     19.000     38.000     76.000    190.000    380.000    570.000    760.000   1140.000   1900.000   3800.000   7600.000  11400.000 
  0.1000E+11  0.2760E-25  0.1440E-20  0.7850E-17  0.9360E-14  0.1410E-11  0.2070E-10  0.3890E-10  0.4460E-10  0.4650E-10  0.4690E-10  0.4450E-10  0.3830E-10  0.3080E-10  0.2640E-10
  0.1000E+12  0.1480E-24  0.7640E-20  0.4150E-16  0.6030E-13  0.6180E-11  0.3610E-10  0.5020E-10  0.5400E-10  0.5530E-10  0.5580E-10  0.5470E-10  0.5140E-10  0.4660E-10  0.4340E-10
  0.1000E+13  0.8630E-24  0.4060E-19  0.2000E-15  0.1960E-12  0.5230E-11  0.1740E-10  0.2370E-10  0.2540E-10  0.2600E-10  0.2610E-10  0.2540E-10  0.2360E-10  0.2130E-10  0.1990E-10
  0.1000E+14  0.3410E-23  0.1230E-18  0.4620E-15  0.2010E-12  0.3160E-11  0.1310E-10  0.1890E-10  0.2060E-10  0.2110E-10  0.2110E-10  0.2040E-10  0.1850E-10  0.1620E-10  0.1480E-10
  0.1000E+15  0.4820E-23  0.1450E-18  0.4800E-15  0.1760E-12  0.2880E-11  0.1270E-10  0.1840E-10  0.2000E-10  0.2060E-10  0.2060E-10  0.1980E-10  0.1800E-10  0.1560E-10  0.1420E-10
  0.1000E+16  0.4990E-23  0.1470E-18  0.4790E-15  0.1720E-12  0.2850E-11  0.1260E-10  0.1840E-10  0.2000E-10  0.2050E-10  0.2060E-10  0.1980E-10  0.1790E-10  0.1560E-10  0.1420E-10
  0.1000E+17  0.5010E-23  0.1470E-18  0.4780E-15  0.1720E-12  0.2850E-11  0.1260E-10  0.1840E-10  0.2000E-10  0.2050E-10  0.2050E-10  0.1980E-10  0.1790E-10  0.1560E-10  0.1420E-10
WAVELENGTH(A)= 
    53.072
 7 14 t 
excit   
     7.600     11.400     19.000     38.000     76.000    190.000    380.000    570.000    760.000   1140.000   1900.000   3800.000   7600.000  11400.000 
  0.1000E+11  0.4120E-22  0.9510E-18  0.2680E-14  0.8920E-12  0.1320E-10  0.4850E-10  0.6460E-10  0.6870E-10  0.6980E-10  0.6990E-10  0.6780E-10  0.6280E-10  0.5630E-10  0.5210E-10
  0.1000E+12  0.4100E-22  0.9420E-18  0.2650E-14  0.8530E-12  0.9100E-11  0.1880E-10  0.2090E-10  0.2140E-10  0.2150E-10  0.2150E-10  0.2120E-10  0.2060E-10  0.1980E-10  0.1920E-10
  0.1000E+13  0.3850E-22  0.8570E-18  0.2320E-14  0.5830E-12  0.2340E-11  0.4020E-11  0.4840E-11  0.5050E-11  0.5100E-11  0.5080E-11  0.4920E-11  0.4610E-11  0.4240E-11  0.4020E-11
  0.1000E+14  0.2270E-22  0.3900E-18  0.8150E-15  0.1270E-12  0.7500E-12  0.2400E-11  0.3250E-11  0.3460E-11  0.3520E-11  0.3490E-11  0.3330E-11  0.3010E-11  0.2620E-11  0.2390E-11
  0.1000E+15  0.1050E-22  0.1470E-18  0.2630E-15  0.5360E-13  0.6100E-12  0.2250E-11  0.3100E-11  0.3310E-11  0.3370E-11  0.3340E-11  0.3180E-11  0.2860E-11  0.2470E-11  0.2240E-11
  0.1000E+16  0.8790E-23  0.1190E-18  0.2070E-15  0.4690E-13  0.5970E-12  0.2240E-11  0.3090E-11  0.3300E-11  0.3350E-11  0.3330E-11  0.3170E-11  0.2840E-11  0.2460E-11  0.2230E-11
  0.1000E+17  0.8610E-23  0.1160E-18  0.2010E-15  0.4620E-13  0.5960E-12  0.2240E-11  0.3090E-11  0.3300E-11  0.3350E-11  0.3320E-11  0.3170E-11  0.2840E-11  0.2450E-11  0.2220E-11
WAVELENGTH(A)= 
    53.673
 7 14 t 
excit   
     7.600     11.400     19.000     38.000     76.000    190.000    380.000    570.000    760.000   1140.000   1900.000   3800.000   7600.000  11400.000 
  0.1000E+11  0.3580E-22  0.7400E-18  0.1900E-14  0.5880E-12  0.8450E-11  0.3000E-10  0.3980E-10  0.4220E-10  0.4280E-10  0.4290E-10  0.4160E-10  0.3850E-10  0.3450E-10  0.3200E-10
  0.1000E+12  0.3550E-22  0.7320E-18  0.1870E-14  0.5610E-12  0.5730E-11  0.1100E-10  0.1200E-10  0.1210E-10  0.1210E-10  0.1210E-10  0.1200E-10  0.1180E-10  0.1140E-10  0.1110E-10
  0.1000E+13  0.3300E-22  0.6590E-18  0.1620E-14  0.3750E-12  0.1300E-11  0.1880E-11  0.2190E-11  0.2260E-11  0.2280E-11  0.2270E-11  0.2210E-11  0.2080E-11  0.1930E-11  0.1850E-11
  0.1000E+14  0.1780E-22  0.2750E-18  0.5240E-15  0.7140E-13  0.3360E-12  0.1000E-11  0.1340E-11  0.1430E-11  0.1440E-11  0.1430E-11  0.1370E-11  0.1240E-11  0.1080E-11  0.9830E-12
  0.1000E+15  0.6550E-23  0.8270E-19  0.1350E-15  0.2450E-13  0.2580E-12  0.9240E-12  0.1270E-11  0.1350E-11  0.1370E-11  0.1360E-11  0.1290E-11  0.1160E-11  0.1000E-11  0.9080E-12
  0.1000E+16  0.4990E-23  0.6050E-19  0.9570E-16  0.2040E-13  0.2510E-12  0.9170E-12  0.1260E-11  0.1340E-11  0.1360E-11  0.1350E-11  0.1290E-11  0.1150E-11  0.9940E-12  0.9000E-12
  0.1000E+17  0.4830E-23  0.5830E-19  0.9180E-16  0.2000E-13  0.2500E-12  0.9160E-12  0.1260E-11  0.1340E-11  0.1360E-11  0.1350E-11  0.1280E-11  0.1150E-11  0.9930E-12  0.9000E-12
WAVELENGTH(A)= 
    54.374
 7 14 t 
excit   
     7.600     11.400     19.000     38.000     76.000    190.000    380.000    570.000    760.000   1140.000   1900.000   3800.000   7600.000  11400.000 
  0.1000E+11  0.1930E-23  0.4560E-19  0.1310E-15  0.5100E-13  0.2050E-11  0.2100E-10  0.3640E-10  0.4100E-10  0.4240E-10  0.4230E-10  0.3990E-10  0.3440E-10  0.2770E-10  0.2390E-10
  0.1000E+12  0.2880E-23  0.6840E-19  0.1970E-15  0.1150E-12  0.6660E-11  0.3200E-10  0.4190E-10  0.4430E-10  0.4500E-10  0.4500E-10  0.4380E-10  0.4100E-10  0.3710E-10  0.3460E-10
  0.1000E+13  0.8100E-23  0.1790E-18  0.4790E-15  0.2610E-12  0.5000E-11  0.1400E-10  0.1800E-10  0.1910E-10  0.1940E-10  0.1930E-10  0.1860E-10  0.1720E-10  0.1550E-10  0.1440E-10
  0.1000E+14  0.2460E-22  0.4140E-18  0.8450E-15  0.2290E-12  0.2800E-11  0.1020E-10  0.1400E-10  0.1500E-10  0.1520E-10  0.1510E-10  0.1440E-10  0.1300E-10  0.1130E-10  0.1030E-10
  0.1000E+15  0.3280E-22  0.4610E-18  0.8250E-15  0.1920E-12  0.2510E-11  0.9750E-11  0.1350E-10  0.1450E-10  0.1480E-10  0.1470E-10  0.1400E-10  0.1260E-10  0.1090E-10  0.9850E-11
  0.1000E+16  0.3370E-22  0.4640E-18  0.8160E-15  0.1870E-12  0.2490E-11  0.9700E-11  0.1350E-10  0.1450E-10  0.1470E-10  0.1460E-10  0.1400E-10  0.1250E-10  0.1080E-10  0.9810E-11
  0.1000E+17  0.3380E-22  0.4640E-18  0.8150E-15  0.1870E-12  0.2480E-11  0.9700E-11  0.1350E-10  0.1450E-10  0.1470E-10  0.1460E-10  0.1390E-10  0.1250E-10  0.1080E-10  0.9810E-11
WAVELENGTH(A)= 
    54.377
 7 14 t 
excit   
     7.600     11.400     19.000     38.000     76.000    190.000    380.000    570.000    760.000   1140.000   1900.000   3800.000   7600.000  11400.000 
  0.1000E+11  0.9000E-23  0.2080E-18  0.5860E-15  0.1950E-12  0.2890E-11  0.1060E-10  0.1410E-10  0.1500E-10  0.1530E-10  0.1530E-10  0.1480E-10  0.1370E-10  0.1230E-10  0.1140E-10
  0.1000E+12  0.8950E-23  0.2060E-18  0.5780E-15  0.1860E-12  0.1990E-11  0.4110E-11  0.4570E-11  0.4670E-11  0.4690E-11  0.4690E-11  0.4640E-11  0.4510E-11  0.4330E-11  0.4200E-11
  0.1000E+13  0.8420E-23  0.1870E-18  0.5060E-15  0.1270E-12  0.5110E-12  0.8770E-12  0.1060E-11  0.1100E-11  0.1110E-11  0.1110E-11  0.1080E-11  0.1010E-11  0.9260E-12  0.8780E-12
  0.1000E+14  0.4960E-23  0.8520E-19  0.1780E-15  0.2790E-13  0.1640E-12  0.5250E-12  0.7110E-12  0.7570E-12  0.7680E-12  0.7630E-12  0.7280E-12  0.6580E-12  0.5730E-12  0.5230E-12
  0.1000E+15  0.2300E-23  0.3220E-19  0.5750E-16  0.1170E-13  0.1330E-12  0.4920E-12  0.6780E-12  0.7240E-12  0.7360E-12  0.7300E-12  0.6950E-12  0.6250E-12  0.5400E-12  0.4900E-12
  0.1000E+16  0.1920E-23  0.2600E-19  0.4510E-16  0.1020E-13  0.1300E-12  0.4890E-12  0.6750E-12  0.7210E-12  0.7320E-12  0.7270E-12  0.6920E-12  0.6210E-12  0.5370E-12  0.4860E-12
  0.1000E+17  0.1880E-23  0.2530E-19  0.4390E-16  0.1010E-13  0.1300E-12  0.4880E-12  0.6740E-12  0.7210E-12  0.7320E-12  0.7260E-12  0.6920E-12  0.6210E-12  0.5360E-12  0.4860E-12
WAVELENGTH(A)= 
    55.007
 7 14 t 
excit   
     7.600     11.400     19.000     38.000     76.000    190.000    380.000    570.000    760.000   1140.000   1900.000   3800.000   7600.000  11400.000 
  0.1000E+11  0.1630E-21  0.2610E-17  0.5510E-14  0.1480E-11  0.1970E-10  0.6760E-10  0.8840E-10  0.9300E-10  0.9430E-10  0.9400E-10  0.9070E-10  0.8380E-10  0.7490E-10  0.6930E-10
  0.1000E+12  0.1620E-21  0.2580E-17  0.5440E-14  0.1410E-11  0.1350E-10  0.2540E-10  0.2740E-10  0.2760E-10  0.2760E-10  0.2750E-10  0.2710E-10  0.2640E-10  0.2540E-10  0.2470E-10
  0.1000E+13  0.1510E-21  0.2330E-17  0.4730E-14  0.9510E-12  0.3200E-11  0.4740E-11  0.5510E-11  0.5680E-11  0.5720E-11  0.5670E-11  0.5480E-11  0.5130E-11  0.4740E-11  0.4500E-11
  0.1000E+14  0.8380E-22  0.1000E-17  0.1580E-14  0.1910E-12  0.9070E-12  0.2670E-11  0.3540E-11  0.3740E-11  0.3780E-11  0.3740E-11  0.3550E-11  0.3190E-11  0.2780E-11  0.2530E-11
  0.1000E+15  0.3410E-22  0.3330E-18  0.4470E-15  0.7160E-13  0.7180E-12  0.2480E-11  0.3360E-11  0.3560E-11  0.3600E-11  0.3560E-11  0.3370E-11  0.3020E-11  0.2600E-11  0.2350E-11
  0.1000E+16  0.2710E-22  0.2550E-18  0.3330E-15  0.6100E-13  0.7000E-12  0.2470E-11  0.3340E-11  0.3540E-11  0.3590E-11  0.3540E-11  0.3360E-11  0.3000E-11  0.2580E-11  0.2330E-11
  0.1000E+17  0.2640E-22  0.2480E-18  0.3220E-15  0.6000E-13  0.6980E-12  0.2460E-11  0.3340E-11  0.3540E-11  0.3580E-11  0.3540E-11  0.3350E-11  0.3000E-11  0.2580E-11  0.2330E-11
WAVELENGTH(A)= 
    55.459
 7 14 t 
excit   
     7.600     11.400     19.000     38.000     76.000    190.000    380.000    570.000    760.000   1140.000   1900.000   3800.000   7600.000  11400.000 
  0.1000E+11  0.1200E-21  0.1780E-17  0.3520E-14  0.9000E-12  0.1170E-10  0.3950E-10  0.5110E-10  0.5390E-10  0.5460E-10  0.5440E-10  0.5250E-10  0.4870E-10  0.4350E-10  0.4030E-10
  0.1000E+12  0.1190E-21  0.1770E-17  0.3470E-14  0.8590E-12  0.7990E-11  0.1490E-10  0.1590E-10  0.1600E-10  0.1610E-10  0.1600E-10  0.1580E-10  0.1540E-10  0.1480E-10  0.1440E-10
  0.1000E+13  0.1110E-21  0.1600E-17  0.3020E-14  0.5810E-12  0.1920E-11  0.2800E-11  0.3220E-11  0.3320E-11  0.3340E-11  0.3300E-11  0.3200E-11  0.3010E-11  0.2780E-11  0.2650E-11
  0.1000E+14  0.6230E-22  0.6920E-18  0.1020E-14  0.1170E-12  0.5420E-12  0.1560E-11  0.2040E-11  0.2160E-11  0.2180E-11  0.2150E-11  0.2050E-11  0.1850E-11  0.1610E-11  0.1470E-11
  0.1000E+15  0.2520E-22  0.2280E-18  0.2870E-15  0.4380E-13  0.4260E-12  0.1450E-11  0.1940E-11  0.2050E-11  0.2080E-11  0.2050E-11  0.1940E-11  0.1740E-11  0.1500E-11  0.1360E-11
  0.1000E+16  0.2000E-22  0.1740E-18  0.2120E-15  0.3720E-13  0.4150E-12  0.1430E-11  0.1930E-11  0.2040E-11  0.2060E-11  0.2040E-11  0.1930E-11  0.1730E-11  0.1490E-11  0.1350E-11
  0.1000E+17  0.1940E-22  0.1690E-18  0.2050E-15  0.3650E-13  0.4140E-12  0.1430E-11  0.1920E-11  0.2040E-11  0.2060E-11  0.2040E-11  0.1930E-11  0.1730E-11  0.1490E-11  0.1350E-11
WAVELENGTH(A)= 
    55.635
 7 14 t 
excit   
     7.600     11.400     19.000     38.000     76.000    190.000    380.000    570.000    760.000   1140.000   1900.000   3800.000   7600.000  11400.000 
  0.1000E+11  0.2430E-21  0.3490E-17  0.6750E-14  0.1690E-11  0.2170E-10  0.7300E-10  0.9470E-10  0.9960E-10  0.1010E-09  0.1000E-09  0.9710E-10  0.8970E-10  0.8040E-10  0.7450E-10
  0.1000E+12  0.2410E-21  0.3460E-17  0.6660E-14  0.1610E-11  0.1480E-10  0.2750E-10  0.2950E-10  0.2970E-10  0.2970E-10  0.2960E-10  0.2920E-10  0.2840E-10  0.2740E-10  0.2670E-10
  0.1000E+13  0.2250E-21  0.3130E-17  0.5790E-14  0.1090E-11  0.3580E-11  0.5260E-11  0.6090E-11  0.6270E-11  0.6300E-11  0.6240E-11  0.6040E-11  0.5660E-11  0.5230E-11  0.4980E-11
  0.1000E+14  0.1260E-21  0.1360E-17  0.1950E-14  0.2220E-12  0.1040E-11  0.2990E-11  0.3940E-11  0.4150E-11  0.4190E-11  0.4140E-11  0.3940E-11  0.3550E-11  0.3090E-11  0.2820E-11
  0.1000E+15  0.5250E-22  0.4600E-18  0.5650E-15  0.8490E-13  0.8240E-12  0.2790E-11  0.3740E-11  0.3950E-11  0.4000E-11  0.3950E-11  0.3750E-11  0.3360E-11  0.2900E-11  0.2630E-11
  0.1000E+16  0.4220E-22  0.3560E-18  0.4240E-15  0.7260E-13  0.8040E-12  0.2770E-11  0.3720E-11  0.3930E-11  0.3980E-11  0.3930E-11  0.3730E-11  0.3340E-11  0.2880E-11  0.2610E-11
  0.1000E+17  0.4110E-22  0.3450E-18  0.4100E-15  0.7140E-13  0.8010E-12  0.2760E-11  0.3720E-11  0.3930E-11  0.3980E-11  0.3920E-11  0.3730E-11  0.3340E-11  0.2880E-11  0.2610E-11
WAVELENGTH(A)= 
    56.711
 7 14 t 
excit   
     7.600     11.400     19.000     38.000     76.000    190.000    380.000    570.000    760.000   1140.000   1900.000   3800.000   7600.000  11400.000 
  0.1000E+11  0.3620E-21  0.4310E-17  0.7180E-14  0.1610E-11  0.1960E-10  0.6360E-10  0.8160E-10  0.8560E-10  0.8650E-10  0.8590E-10  0.8300E-10  0.7650E-10  0.6850E-10  0.6340E-10
  0.1000E+12  0.3590E-21  0.4270E-17  0.7090E-14  0.1530E-11  0.1340E-10  0.2400E-10  0.2540E-10  0.2560E-10  0.2550E-10  0.2530E-10  0.2500E-10  0.2420E-10  0.2340E-10  0.2270E-10
  0.1000E+13  0.3370E-21  0.3870E-17  0.6180E-14  0.1040E-11  0.3230E-11  0.4480E-11  0.5090E-11  0.5220E-11  0.5230E-11  0.5170E-11  0.5000E-11  0.4690E-11  0.4350E-11  0.4140E-11
  0.1000E+14  0.1880E-21  0.1670E-17  0.2070E-14  0.2090E-12  0.8950E-12  0.2450E-11  0.3180E-11  0.3350E-11  0.3370E-11  0.3320E-11  0.3160E-11  0.2840E-11  0.2480E-11  0.2260E-11
  0.1000E+15  0.7450E-22  0.5420E-18  0.5740E-15  0.7650E-13  0.6970E-12  0.2270E-11  0.3010E-11  0.3170E-11  0.3200E-11  0.3150E-11  0.2990E-11  0.2670E-11  0.2310E-11  0.2090E-11
  0.1000E+16  0.5850E-22  0.4090E-18  0.4210E-15  0.6450E-13  0.6790E-12  0.2250E-11  0.2990E-11  0.3150E-11  0.3180E-11  0.3130E-11  0.2970E-11  0.2650E-11  0.2290E-11  0.2070E-11
  0.1000E+17  0.5690E-22  0.3960E-18  0.4060E-15  0.6340E-13  0.6770E-12  0.2250E-11  0.2990E-11  0.3150E-11  0.3180E-11  0.3130E-11  0.2970E-11  0.2650E-11  0.2290E-11  0.2070E-11
WAVELENGTH(A)= 
    58.204
 7 14 t 
excit   
     7.600     11.400     19.000     38.000     76.000    190.000    380.000    570.000    760.000   1140.000   1900.000   3800.000   7600.000  11400.000 
  0.1000E+11  0.7010E-22  0.8360E-18  0.1390E-14  0.3110E-12  0.3810E-11  0.1230E-10  0.1580E-10  0.1660E-10  0.1680E-10  0.1670E-10  0.1610E-10  0.1480E-10  0.1330E-10  0.1230E-10
  0.1000E+12  0.6970E-22  0.8280E-18  0.1370E-14  0.2970E-12  0.2600E-11  0.4650E-11  0.4930E-11  0.4960E-11  0.4950E-11  0.4910E-11  0.4840E-11  0.4700E-11  0.4530E-11  0.4400E-11
  0.1000E+13  0.6530E-22  0.7500E-18  0.1200E-14  0.2010E-12  0.6270E-12  0.8680E-12  0.9860E-12  0.1010E-11  0.1010E-11  0.1000E-11  0.9690E-12  0.9090E-12  0.8420E-12  0.8020E-12
  0.1000E+14  0.3640E-22  0.3240E-18  0.4020E-15  0.4060E-13  0.1740E-12  0.4750E-12  0.6170E-12  0.6480E-12  0.6540E-12  0.6440E-12  0.6120E-12  0.5510E-12  0.4800E-12  0.4370E-12
  0.1000E+15  0.1440E-22  0.1050E-18  0.1110E-15  0.1480E-13  0.1350E-12  0.4400E-12  0.5830E-12  0.6150E-12  0.6210E-12  0.6110E-12  0.5790E-12  0.5180E-12  0.4470E-12  0.4040E-12
  0.1000E+16  0.1130E-22  0.7930E-19  0.8160E-16  0.1250E-13  0.1320E-12  0.4360E-12  0.5790E-12  0.6120E-12  0.6170E-12  0.6080E-12  0.5760E-12  0.5150E-12  0.4440E-12  0.4010E-12
  0.1000E+17  0.1100E-22  0.7680E-19  0.7860E-16  0.1230E-13  0.1310E-12  0.4360E-12  0.5790E-12  0.6110E-12  0.6170E-12  0.6070E-12  0.5760E-12  0.5140E-12  0.4430E-12  0.4010E-12
WAVELENGTH(A)= 
   873.981
 7 14 t 
excit   
     7.600     11.400     19.000     38.000     76.000    190.000    380.000    570.000    760.000   1140.000   1900.000   3800.000   7600.000  11400.000 
  0.1000E+11  0.7370E-13  0.1300E-12  0.2060E-12  0.7270E-12  0.6910E-11  0.2620E-10  0.3620E-10  0.3880E-10  0.3950E-10  0.3950E-10  0.3800E-10  0.3470E-10  0.3050E-10  0.2800E-10
  0.1000E+12  0.8110E-13  0.1430E-12  0.2250E-12  0.7820E-12  0.6150E-11  0.1570E-10  0.1850E-10  0.1910E-10  0.1920E-10  0.1920E-10  0.1880E-10  0.1800E-10  0.1680E-10  0.1600E-10
  0.1000E+13  0.1350E-12  0.2290E-12  0.3440E-12  0.9080E-12  0.2320E-11  0.2570E-11  0.2550E-11  0.2540E-11  0.2540E-11  0.2530E-11  0.2540E-11  0.2550E-11  0.2560E-11  0.2560E-11
  0.1000E+14  0.1300E-12  0.1710E-12  0.1990E-12  0.2370E-12  0.2490E-12  0.2410E-12  0.2390E-12  0.2380E-12  0.2380E-12  0.2370E-12  0.2370E-12  0.2370E-12  0.2380E-12  0.2380E-12
  0.1000E+15  0.2190E-13  0.2440E-13  0.2500E-13  0.2470E-13  0.2430E-13  0.2380E-13  0.2360E-13  0.2350E-13  0.2350E-13  0.2340E-13  0.2340E-13  0.2340E-13  0.2340E-13  0.2340E-13
  0.1000E+16  0.2310E-14  0.2520E-14  0.2550E-14  0.2480E-14  0.2420E-14  0.2370E-14  0.2350E-14  0.2350E-14  0.2340E-14  0.2340E-14  0.2340E-14  0.2340E-14  0.2340E-14  0.2330E-14
  0.1000E+17  0.2320E-15  0.2530E-15  0.2550E-15  0.2480E-15  0.2420E-15  0.2370E-15  0.2350E-15  0.2350E-15  0.2340E-15  0.2340E-15  0.2340E-15  0.2340E-15  0.2330E-15  0.2330E-15
WAVELENGTH(A)= 
  1017.050
 7 14 t 
excit   
     7.600     11.400     19.000     38.000     76.000    190.000    380.000    570.000    760.000   1140.000   1900.000   3800.000   7600.000  11400.000 
  0.1000E+11  0.1970E-12  0.3150E-12  0.4550E-12  0.1380E-11  0.1260E-10  0.4730E-10  0.6500E-10  0.6950E-10  0.7080E-10  0.7080E-10  0.6830E-10  0.6250E-10  0.5520E-10  0.5070E-10
  0.1000E+12  0.2090E-12  0.3350E-12  0.4850E-12  0.1460E-11  0.1070E-10  0.2440E-10  0.2750E-10  0.2810E-10  0.2830E-10  0.2820E-10  0.2790E-10  0.2710E-10  0.2580E-10  0.2490E-10
  0.1000E+13  0.2710E-12  0.4220E-12  0.5890E-12  0.1400E-11  0.3070E-11  0.2990E-11  0.2900E-11  0.2870E-11  0.2860E-11  0.2860E-11  0.2870E-11  0.2900E-11  0.2940E-11  0.2960E-11
  0.1000E+14  0.1910E-12  0.2320E-12  0.2520E-12  0.2810E-12  0.2790E-12  0.2620E-12  0.2570E-12  0.2560E-12  0.2550E-12  0.2550E-12  0.2550E-12  0.2550E-12  0.2550E-12  0.2560E-12
  0.1000E+15  0.3010E-13  0.3080E-13  0.2950E-13  0.2770E-13  0.2660E-13  0.2560E-13  0.2530E-13  0.2520E-13  0.2510E-13  0.2500E-13  0.2500E-13  0.2500E-13  0.2490E-13  0.2490E-13
  0.1000E+16  0.3160E-14  0.3160E-14  0.2980E-14  0.2750E-14  0.2640E-14  0.2560E-14  0.2520E-14  0.2510E-14  0.2510E-14  0.2500E-14  0.2500E-14  0.2490E-14  0.2490E-14  0.2490E-14
  0.1000E+17  0.3180E-15  0.3160E-15  0.2980E-15  0.2750E-15  0.2640E-15  0.2560E-15  0.2520E-15  0.2510E-15  0.2510E-15  0.2500E-15  0.2490E-15  0.2490E-15  0.2490E-15  0.2490E-15
WAVELENGTH(A)= 
  1037.120
 7 14 t 
excit   
     7.600     11.400     19.000     38.000     76.000    190.000    380.000    570.000    760.000   1140.000   1900.000   3800.000   7600.000  11400.000 
  0.1000E+11  0.8530E-13  0.1300E-12  0.1790E-12  0.4390E-12  0.3460E-11  0.1230E-10  0.1650E-10  0.1760E-10  0.1790E-10  0.1790E-10  0.1730E-10  0.1590E-10  0.1420E-10  0.1310E-10
  0.1000E+12  0.8490E-13  0.1290E-12  0.1780E-12  0.4290E-12  0.2570E-11  0.5290E-11  0.5820E-11  0.5910E-11  0.5930E-11  0.5930E-11  0.5880E-11  0.5760E-11  0.5550E-11  0.5400E-11
  0.1000E+13  0.7980E-13  0.1190E-12  0.1600E-12  0.3220E-12  0.6030E-12  0.5280E-12  0.4980E-12  0.4910E-12  0.4890E-12  0.4890E-12  0.4930E-12  0.5020E-12  0.5150E-12  0.5240E-12
  0.1000E+14  0.3670E-13  0.4360E-13  0.4670E-13  0.4970E-13  0.4560E-13  0.4120E-13  0.4020E-13  0.3990E-13  0.3980E-13  0.3980E-13  0.3970E-13  0.3980E-13  0.4000E-13  0.4020E-13
  0.1000E+15  0.4960E-14  0.5010E-14  0.4750E-14  0.4410E-14  0.4150E-14  0.3960E-14  0.3900E-14  0.3880E-14  0.3870E-14  0.3860E-14  0.3850E-14  0.3850E-14  0.3850E-14  0.3850E-14
  0.1000E+16  0.5090E-15  0.5030E-15  0.4710E-15  0.4320E-15  0.4110E-15  0.3940E-15  0.3890E-15  0.3870E-15  0.3860E-15  0.3850E-15  0.3840E-15  0.3830E-15  0.3830E-15  0.3830E-15
  0.1000E+17  0.5110E-16  0.5040E-16  0.4700E-16  0.4310E-16  0.4100E-16  0.3940E-16  0.3890E-16  0.3870E-16  0.3860E-16  0.3850E-16  0.3840E-16  0.3830E-16  0.3830E-16  0.3830E-16
WAVELENGTH(A)= 
  1098.550
 7 14 t 
excit   
     7.600     11.400     19.000     38.000     76.000    190.000    380.000    570.000    760.000   1140.000   1900.000   3800.000   7600.000  11400.000 
  0.1000E+11  0.5840E-13  0.8960E-13  0.1250E-12  0.4140E-12  0.4070E-11  0.1530E-10  0.2090E-10  0.2230E-10  0.2280E-10  0.2270E-10  0.2200E-10  0.2010E-10  0.1780E-10  0.1640E-10
  0.1000E+12  0.6210E-13  0.9600E-13  0.1350E-12  0.4380E-12  0.3330E-11  0.7340E-11  0.8130E-11  0.8270E-11  0.8300E-11  0.8300E-11  0.8230E-11  0.8040E-11  0.7740E-11  0.7500E-11
  0.1000E+13  0.8090E-13  0.1230E-12  0.1700E-12  0.4100E-12  0.8450E-12  0.7380E-12  0.6960E-12  0.6860E-12  0.6830E-12  0.6830E-12  0.6880E-12  0.7000E-12  0.7180E-12  0.7310E-12
  0.1000E+14  0.5060E-13  0.5930E-13  0.6290E-13  0.6850E-13  0.6400E-13  0.5800E-13  0.5660E-13  0.5630E-13  0.5610E-13  0.5600E-13  0.5590E-13  0.5600E-13  0.5630E-13  0.5650E-13
  0.1000E+15  0.7380E-14  0.7250E-14  0.6730E-14  0.6180E-14  0.5850E-14  0.5590E-14  0.5500E-14  0.5470E-14  0.5460E-14  0.5450E-14  0.5430E-14  0.5420E-14  0.5420E-14  0.5420E-14
  0.1000E+16  0.7660E-15  0.7350E-15  0.6710E-15  0.6070E-15  0.5790E-15  0.5570E-15  0.5490E-15  0.5460E-15  0.5440E-15  0.5430E-15  0.5420E-15  0.5410E-15  0.5400E-15  0.5400E-15
  0.1000E+17  0.7680E-16  0.7360E-16  0.6710E-16  0.6060E-16  0.5780E-16  0.5560E-16  0.5480E-16  0.5460E-16  0.5440E-16  0.5430E-16  0.5420E-16  0.5400E-16  0.5400E-16  0.5390E-16
WAVELENGTH(A)= 
  1180.480
 7 14 t 
excit   
     7.600     11.400     19.000     38.000     76.000    190.000    380.000    570.000    760.000   1140.000   1900.000   3800.000   7600.000  11400.000 
  0.1000E+11  0.6650E-12  0.9550E-12  0.1250E-11  0.2320E-11  0.1380E-10  0.4790E-10  0.6440E-10  0.6860E-10  0.6980E-10  0.6970E-10  0.6740E-10  0.6200E-10  0.5510E-10  0.5070E-10
  0.1000E+12  0.6450E-12  0.9230E-12  0.1210E-11  0.2230E-11  0.1050E-10  0.2150E-10  0.2370E-10  0.2400E-10  0.2410E-10  0.2410E-10  0.2390E-10  0.2330E-10  0.2240E-10  0.2180E-10
  0.1000E+13  0.5190E-12  0.7250E-12  0.9260E-12  0.1560E-11  0.2550E-11  0.2180E-11  0.2040E-11  0.2010E-11  0.2000E-11  0.2000E-11  0.2010E-11  0.2050E-11  0.2100E-11  0.2140E-11
  0.1000E+14  0.1930E-12  0.2160E-12  0.2200E-12  0.2190E-12  0.1910E-12  0.1700E-12  0.1660E-12  0.1640E-12  0.1640E-12  0.1630E-12  0.1630E-12  0.1630E-12  0.1640E-12  0.1650E-12
  0.1000E+15  0.2460E-13  0.2330E-13  0.2100E-13  0.1880E-13  0.1740E-13  0.1640E-13  0.1610E-13  0.1600E-13  0.1590E-13  0.1590E-13  0.1580E-13  0.1580E-13  0.1580E-13  0.1580E-13
  0.1000E+16  0.2510E-14  0.2330E-14  0.2070E-14  0.1830E-14  0.1720E-14  0.1630E-14  0.1600E-14  0.1590E-14  0.1590E-14  0.1580E-14  0.1580E-14  0.1570E-14  0.1570E-14  0.1570E-14
  0.1000E+17  0.2520E-15  0.2330E-15  0.2070E-15  0.1830E-15  0.1720E-15  0.1630E-15  0.1600E-15  0.1590E-15  0.1590E-15  0.1580E-15  0.1580E-15  0.1570E-15  0.1570E-15  0.1570E-15
WAVELENGTH(A)= 
  1197.280
 7 14 t 
excit   
     7.600     11.400     19.000     38.000     76.000    190.000    380.000    570.000    760.000   1140.000   1900.000   3800.000   7600.000  11400.000 
  0.1000E+11  0.2970E-12  0.4350E-12  0.5840E-12  0.1740E-11  0.1620E-10  0.6000E-10  0.8140E-10  0.8690E-10  0.8850E-10  0.8850E-10  0.8560E-10  0.7870E-10  0.6990E-10  0.6440E-10
  0.1000E+12  0.3010E-12  0.4440E-12  0.5990E-12  0.1770E-11  0.1250E-10  0.2460E-10  0.2630E-10  0.2650E-10  0.2660E-10  0.2660E-10  0.2650E-10  0.2620E-10  0.2570E-10  0.2520E-10
  0.1000E+13  0.3080E-12  0.4450E-12  0.5870E-12  0.1340E-11  0.2490E-11  0.2040E-11  0.1910E-11  0.1880E-11  0.1870E-11  0.1870E-11  0.1880E-11  0.1920E-11  0.1970E-11  0.2010E-11
  0.1000E+14  0.1560E-12  0.1760E-12  0.1800E-12  0.1910E-12  0.1740E-12  0.1570E-12  0.1530E-12  0.1520E-12  0.1510E-12  0.1510E-12  0.1510E-12  0.1510E-12  0.1520E-12  0.1520E-12
  0.1000E+15  0.2220E-13  0.2090E-13  0.1880E-13  0.1680E-13  0.1580E-13  0.1510E-13  0.1480E-13  0.1480E-13  0.1470E-13  0.1470E-13  0.1460E-13  0.1460E-13  0.1460E-13  0.1460E-13
  0.1000E+16  0.2290E-14  0.2110E-14  0.1870E-14  0.1650E-14  0.1570E-14  0.1500E-14  0.1480E-14  0.1470E-14  0.1470E-14  0.1460E-14  0.1460E-14  0.1450E-14  0.1450E-14  0.1450E-14
  0.1000E+17  0.2300E-15  0.2120E-15  0.1870E-15  0.1650E-15  0.1560E-15  0.1500E-15  0.1480E-15  0.1470E-15  0.1470E-15  0.1460E-15  0.1460E-15  0.1450E-15  0.1450E-15  0.1450E-15
WAVELENGTH(A)= 
  1512.450
 7 14 t 
excit   
     7.600     11.400     19.000     38.000     76.000    190.000    380.000    570.000    760.000   1140.000   1900.000   3800.000   7600.000  11400.000 
  0.1000E+11  0.9960E-12  0.1390E-11  0.1800E-11  0.4810E-11  0.4170E-10  0.1500E-09  0.2020E-09  0.2150E-09  0.2190E-09  0.2180E-09  0.2110E-09  0.1950E-09  0.1730E-09  0.1600E-09
  0.1000E+12  0.1020E-11  0.1420E-11  0.1860E-11  0.4910E-11  0.3180E-10  0.6230E-10  0.6670E-10  0.6720E-10  0.6730E-10  0.6720E-10  0.6680E-10  0.6590E-10  0.6420E-10  0.6280E-10
  0.1000E+13  0.1090E-11  0.1510E-11  0.1930E-11  0.4010E-11  0.6850E-11  0.5350E-11  0.4930E-11  0.4830E-11  0.4800E-11  0.4800E-11  0.4830E-11  0.4920E-11  0.5070E-11  0.5180E-11
  0.1000E+14  0.5600E-12  0.5850E-12  0.5660E-12  0.5580E-12  0.4650E-12  0.4020E-12  0.3880E-12  0.3840E-12  0.3830E-12  0.3810E-12  0.3800E-12  0.3810E-12  0.3820E-12  0.3840E-12
  0.1000E+15  0.7540E-13  0.6490E-13  0.5420E-13  0.4580E-13  0.4140E-13  0.3850E-13  0.3760E-13  0.3730E-13  0.3710E-13  0.3690E-13  0.3680E-13  0.3670E-13  0.3670E-13  0.3670E-13
  0.1000E+16  0.7720E-14  0.6480E-14  0.5310E-14  0.4440E-14  0.4090E-14  0.3830E-14  0.3740E-14  0.3710E-14  0.3700E-14  0.3680E-14  0.3670E-14  0.3660E-14  0.3650E-14  0.3650E-14
  0.1000E+17  0.7740E-15  0.6480E-15  0.5300E-15  0.4430E-15  0.4080E-15  0.3830E-15  0.3740E-15  0.3710E-15  0.3700E-15  0.3680E-15  0.3670E-15  0.3660E-15  0.3650E-15  0.3650E-15
WAVELENGTH(A)= 
  1525.690
 7 14 t 
excit   
     7.600     11.400     19.000     38.000     76.000    190.000    380.000    570.000    760.000   1140.000   1900.000   3800.000   7600.000  11400.000 
  0.1000E+11  0.3030E-12  0.4410E-12  0.5970E-12  0.2260E-11  0.2390E-10  0.8870E-10  0.1190E-09  0.1270E-09  0.1290E-09  0.1290E-09  0.1250E-09  0.1160E-09  0.1030E-09  0.9560E-10
  0.1000E+12  0.3300E-12  0.4820E-12  0.6530E-12  0.2340E-11  0.1690E-10  0.2800E-10  0.2800E-10  0.2780E-10  0.2780E-10  0.2780E-10  0.2800E-10  0.2830E-10  0.2860E-10  0.2860E-10
  0.1000E+13  0.3470E-12  0.4680E-12  0.5860E-12  0.1360E-11  0.2260E-11  0.1650E-11  0.1510E-11  0.1480E-11  0.1470E-11  0.1470E-11  0.1480E-11  0.1520E-11  0.1570E-11  0.1620E-11
  0.1000E+14  0.1590E-12  0.1620E-12  0.1540E-12  0.1550E-12  0.1370E-12  0.1210E-12  0.1170E-12  0.1160E-12  0.1160E-12  0.1160E-12  0.1150E-12  0.1160E-12  0.1160E-12  0.1160E-12
  0.1000E+15  0.2220E-13  0.1900E-13  0.1570E-13  0.1330E-13  0.1230E-13  0.1160E-13  0.1140E-13  0.1130E-13  0.1130E-13  0.1120E-13  0.1120E-13  0.1120E-13  0.1110E-13  0.1110E-13
  0.1000E+16  0.2290E-14  0.1910E-14  0.1560E-14  0.1300E-14  0.1210E-14  0.1160E-14  0.1130E-14  0.1130E-14  0.1120E-14  0.1120E-14  0.1110E-14  0.1110E-14  0.1110E-14  0.1110E-14
  0.1000E+17  0.2300E-15  0.1910E-15  0.1560E-15  0.1300E-15  0.1210E-15  0.1160E-15  0.1130E-15  0.1130E-15  0.1120E-15  0.1120E-15  0.1110E-15  0.1110E-15  0.1110E-15  0.1110E-15
WAVELENGTH(A)= 
  1663.640
 7 14 t 
excit   
     7.600     11.400     19.000     38.000     76.000    190.000    380.000    570.000    760.000   1140.000   1900.000   3800.000   7600.000  11400.000 
  0.1000E+11  0.3570E-13  0.5870E-13  0.8580E-13  0.3510E-12  0.3760E-11  0.1440E-10  0.1990E-10  0.2130E-10  0.2170E-10  0.2170E-10  0.2090E-10  0.1910E-10  0.1690E-10  0.1550E-10
  0.1000E+12  0.4000E-13  0.6630E-13  0.9800E-13  0.3810E-12  0.3290E-11  0.8600E-11  0.1020E-10  0.1060E-10  0.1070E-10  0.1070E-10  0.1050E-10  0.9980E-11  0.9300E-11  0.8840E-11
  0.1000E+13  0.7300E-13  0.1210E-12  0.1780E-12  0.4820E-12  0.1290E-11  0.1430E-11  0.1410E-11  0.1410E-11  0.1410E-11  0.1410E-11  0.1410E-11  0.1420E-11  0.1430E-11  0.1430E-11
  0.1000E+14  0.7950E-13  0.1010E-12  0.1140E-12  0.1330E-12  0.1380E-12  0.1330E-12  0.1310E-12  0.1300E-12  0.1300E-12  0.1300E-12  0.1300E-12  0.1300E-12  0.1300E-12  0.1300E-12
  0.1000E+15  0.1380E-13  0.1460E-13  0.1450E-13  0.1390E-13  0.1340E-13  0.1300E-13  0.1290E-13  0.1280E-13  0.1280E-13  0.1280E-13  0.1280E-13  0.1270E-13  0.1270E-13  0.1270E-13
  0.1000E+16  0.1460E-14  0.1510E-14  0.1470E-14  0.1390E-14  0.1340E-14  0.1300E-14  0.1290E-14  0.1280E-14  0.1280E-14  0.1280E-14  0.1270E-14  0.1270E-14  0.1270E-14  0.1270E-14
  0.1000E+17  0.1470E-15  0.1520E-15  0.1470E-15  0.1390E-15  0.1340E-15  0.1300E-15  0.1280E-15  0.1280E-15  0.1280E-15  0.1280E-15  0.1270E-15  0.1270E-15  0.1270E-15  0.1270E-15
WAVELENGTH(A)= 
  1675.770
 7 14 t 
excit   
     7.600     11.400     19.000     38.000     76.000    190.000    380.000    570.000    760.000   1140.000   1900.000   3800.000   7600.000  11400.000 
  0.1000E+11  0.9540E-12  0.1330E-11  0.1730E-11  0.5270E-11  0.4960E-10  0.1770E-09  0.2350E-09  0.2500E-09  0.2540E-09  0.2540E-09  0.2460E-09  0.2290E-09  0.2050E-09  0.1900E-09
  0.1000E+12  0.9720E-12  0.1350E-11  0.1760E-11  0.5200E-11  0.3290E-10  0.5060E-10  0.4950E-10  0.4900E-10  0.4890E-10  0.4890E-10  0.4930E-10  0.5010E-10  0.5090E-10  0.5110E-10
  0.1000E+13  0.8350E-12  0.1080E-11  0.1300E-11  0.2710E-11  0.4000E-11  0.2800E-11  0.2540E-11  0.2490E-11  0.2470E-11  0.2470E-11  0.2490E-11  0.2550E-11  0.2640E-11  0.2710E-11
  0.1000E+14  0.3130E-12  0.3090E-12  0.2850E-12  0.2760E-12  0.2340E-12  0.2040E-12  0.1970E-12  0.1950E-12  0.1940E-12  0.1930E-12  0.1930E-12  0.1930E-12  0.1940E-12  0.1940E-12
  0.1000E+15  0.4110E-13  0.3400E-13  0.2750E-13  0.2290E-13  0.2080E-13  0.1950E-13  0.1900E-13  0.1890E-13  0.1880E-13  0.1870E-13  0.1870E-13  0.1860E-13  0.1860E-13  0.1860E-13
  0.1000E+16  0.4210E-14  0.3410E-14  0.2720E-14  0.2230E-14  0.2060E-14  0.1940E-14  0.1900E-14  0.1880E-14  0.1880E-14  0.1870E-14  0.1860E-14  0.1860E-14  0.1850E-14  0.1850E-14
  0.1000E+17  0.4220E-15  0.3410E-15  0.2710E-15  0.2220E-15  0.2050E-15  0.1940E-15  0.1900E-15  0.1880E-15  0.1880E-15  0.1870E-15  0.1860E-15  0.1850E-15  0.1850E-15  0.1850E-15
WAVELENGTH(A)= 
  1953.770
 7 14 t 
excit   
     7.600     11.400     19.000     38.000     76.000    190.000    380.000    570.000    760.000   1140.000   1900.000   3800.000   7600.000  11400.000 
  0.1000E+11  0.2740E-12  0.4190E-12  0.5770E-12  0.1410E-11  0.1110E-10  0.3940E-10  0.5300E-10  0.5650E-10  0.5750E-10  0.5740E-10  0.5550E-10  0.5110E-10  0.4550E-10  0.4200E-10
  0.1000E+12  0.2730E-12  0.4160E-12  0.5720E-12  0.1380E-11  0.8250E-11  0.1700E-10  0.1870E-10  0.1900E-10  0.1910E-10  0.1910E-10  0.1890E-10  0.1850E-10  0.1790E-10  0.1730E-10
  0.1000E+13  0.2570E-12  0.3830E-12  0.5140E-12  0.1040E-11  0.1940E-11  0.1700E-11  0.1600E-11  0.1580E-11  0.1570E-11  0.1570E-11  0.1580E-11  0.1610E-11  0.1660E-11  0.1690E-11
  0.1000E+14  0.1180E-12  0.1400E-12  0.1500E-12  0.1600E-12  0.1470E-12  0.1330E-12  0.1290E-12  0.1280E-12  0.1280E-12  0.1280E-12  0.1280E-12  0.1280E-12  0.1290E-12  0.1290E-12
  0.1000E+15  0.1590E-13  0.1610E-13  0.1530E-13  0.1420E-13  0.1340E-13  0.1270E-13  0.1250E-13  0.1250E-13  0.1240E-13  0.1240E-13  0.1240E-13  0.1240E-13  0.1240E-13  0.1240E-13
  0.1000E+16  0.1640E-14  0.1620E-14  0.1510E-14  0.1390E-14  0.1320E-14  0.1270E-14  0.1250E-14  0.1240E-14  0.1240E-14  0.1240E-14  0.1230E-14  0.1230E-14  0.1230E-14  0.1230E-14
  0.1000E+17  0.1640E-15  0.1620E-15  0.1510E-15  0.1390E-15  0.1320E-15  0.1270E-15  0.1250E-15  0.1240E-15  0.1240E-15  0.1240E-15  0.1230E-15  0.1230E-15  0.1230E-15  0.1230E-15
WAVELENGTH(A)= 
  1982.830
 7 14 t 
excit   
     7.600     11.400     19.000     38.000     76.000    190.000    380.000    570.000    760.000   1140.000   1900.000   3800.000   7600.000  11400.000 
  0.1000E+11  0.1330E-13  0.2210E-13  0.3280E-13  0.2000E-12  0.2650E-11  0.1190E-10  0.1730E-10  0.1880E-10  0.1930E-10  0.1930E-10  0.1850E-10  0.1660E-10  0.1440E-10  0.1300E-10
  0.1000E+12  0.2220E-13  0.3740E-13  0.5660E-13  0.2850E-12  0.3090E-11  0.8360E-11  0.9720E-11  0.9990E-11  0.1010E-10  0.1010E-10  0.9940E-11  0.9600E-11  0.9080E-11  0.8700E-11
  0.1000E+13  0.6340E-13  0.1000E-12  0.1420E-12  0.4010E-12  0.1050E-11  0.1100E-11  0.1080E-11  0.1080E-11  0.1070E-11  0.1070E-11  0.1080E-11  0.1090E-11  0.1100E-11  0.1110E-11
  0.1000E+14  0.6350E-13  0.7730E-13  0.8430E-13  0.9680E-13  0.1020E-12  0.9940E-13  0.9840E-13  0.9810E-13  0.9800E-13  0.9780E-13  0.9780E-13  0.9790E-13  0.9800E-13  0.9820E-13
  0.1000E+15  0.1080E-13  0.1110E-13  0.1070E-13  0.1010E-13  0.9890E-14  0.9770E-14  0.9700E-14  0.9680E-14  0.9670E-14  0.9650E-14  0.9640E-14  0.9630E-14  0.9620E-14  0.9620E-14
  0.1000E+16  0.1140E-14  0.1150E-14  0.1090E-14  0.1010E-14  0.9850E-15  0.9750E-15  0.9690E-15  0.9670E-15  0.9650E-15  0.9640E-15  0.9630E-15  0.9610E-15  0.9600E-15  0.9600E-15
  0.1000E+17  0.1150E-15  0.1150E-15  0.1090E-15  0.1010E-15  0.9850E-16  0.9750E-16  0.9690E-16  0.9660E-16  0.9650E-16  0.9640E-16  0.9630E-16  0.9610E-16  0.9600E-16  0.9590E-16
WAVELENGTH(A)= 
  2036.040
 7 14 t 
excit   
     7.600     11.400     19.000     38.000     76.000    190.000    380.000    570.000    760.000   1140.000   1900.000   3800.000   7600.000  11400.000 
  0.1000E+11  0.1120E-11  0.1550E-11  0.2040E-11  0.7540E-11  0.7510E-10  0.2370E-09  0.2960E-09  0.3090E-09  0.3130E-09  0.3140E-09  0.3080E-09  0.2920E-09  0.2700E-09  0.2550E-09
  0.1000E+12  0.9760E-12  0.1320E-11  0.1680E-11  0.5650E-11  0.3180E-10  0.3690E-10  0.3350E-10  0.3270E-10  0.3250E-10  0.3260E-10  0.3320E-10  0.3460E-10  0.3650E-10  0.3760E-10
  0.1000E+13  0.5400E-12  0.6580E-12  0.7580E-12  0.1630E-11  0.2210E-11  0.1400E-11  0.1250E-11  0.1210E-11  0.1210E-11  0.1200E-11  0.1220E-11  0.1250E-11  0.1310E-11  0.1360E-11
  0.1000E+14  0.1690E-12  0.1580E-12  0.1400E-12  0.1320E-12  0.1090E-12  0.9430E-13  0.9100E-13  0.9010E-13  0.8970E-13  0.8930E-13  0.8920E-13  0.8920E-13  0.8960E-13  0.9000E-13
  0.1000E+15  0.2140E-13  0.1670E-13  0.1300E-13  0.1040E-13  0.9520E-14  0.8960E-14  0.8760E-14  0.8690E-14  0.8650E-14  0.8620E-14  0.8580E-14  0.8550E-14  0.8540E-14  0.8530E-14
  0.1000E+16  0.2180E-14  0.1670E-14  0.1270E-14  0.1010E-14  0.9370E-15  0.8910E-15  0.8720E-15  0.8650E-15  0.8620E-15  0.8580E-15  0.8550E-15  0.8510E-15  0.8490E-15  0.8480E-15
  0.1000E+17  0.2190E-15  0.1670E-15  0.1270E-15  0.1010E-15  0.9360E-16  0.8900E-16  0.8720E-16  0.8650E-16  0.8620E-16  0.8580E-16  0.8550E-16  0.8510E-16  0.8490E-16  0.8470E-16
WAVELENGTH(A)= 
  2165.910
 7 14 t 
excit   
     7.600     11.400     19.000     38.000     76.000    190.000    380.000    570.000    760.000   1140.000   1900.000   3800.000   7600.000  11400.000 
  0.1000E+11  0.7810E-14  0.1370E-13  0.2150E-13  0.2030E-12  0.3210E-11  0.1750E-10  0.2720E-10  0.3000E-10  0.3080E-10  0.3080E-10  0.2930E-10  0.2600E-10  0.2190E-10  0.1950E-10
  0.1000E+12  0.1960E-13  0.3420E-13  0.5370E-13  0.3410E-12  0.5180E-11  0.1770E-10  0.2160E-10  0.2250E-10  0.2270E-10  0.2270E-10  0.2230E-10  0.2130E-10  0.1980E-10  0.1880E-10
  0.1000E+13  0.9880E-13  0.1570E-12  0.2240E-12  0.6870E-12  0.2410E-11  0.2930E-11  0.2950E-11  0.2950E-11  0.2950E-11  0.2950E-11  0.2950E-11  0.2960E-11  0.2960E-11  0.2970E-11
  0.1000E+14  0.1670E-12  0.2000E-12  0.2140E-12  0.2470E-12  0.2820E-12  0.2870E-12  0.2860E-12  0.2850E-12  0.2850E-12  0.2850E-12  0.2850E-12  0.2850E-12  0.2850E-12  0.2850E-12
  0.1000E+15  0.3190E-13  0.3210E-13  0.3030E-13  0.2830E-13  0.2830E-13  0.2850E-13  0.2840E-13  0.2840E-13  0.2840E-13  0.2830E-13  0.2830E-13  0.2830E-13  0.2820E-13  0.2820E-13
  0.1000E+16  0.3430E-14  0.3360E-14  0.3130E-14  0.2870E-14  0.2830E-14  0.2850E-14  0.2840E-14  0.2840E-14  0.2830E-14  0.2830E-14  0.2830E-14  0.2820E-14  0.2820E-14  0.2820E-14
  0.1000E+17  0.3450E-15  0.3380E-15  0.3140E-15  0.2870E-15  0.2830E-15  0.2850E-15  0.2840E-15  0.2840E-15  0.2830E-15  0.2830E-15  0.2830E-15  0.2820E-15  0.2820E-15  0.2820E-15
WAVELENGTH(A)= 
  2194.860
 7 14 t 
excit   
     7.600     11.400     19.000     38.000     76.000    190.000    380.000    570.000    760.000   1140.000   1900.000   3800.000   7600.000  11400.000 
  0.1000E+11  0.3880E-13  0.6910E-13  0.1100E-12  0.6310E-12  0.8060E-11  0.3600E-10  0.5270E-10  0.5720E-10  0.5860E-10  0.5850E-10  0.5610E-10  0.5040E-10  0.4340E-10  0.3920E-10
  0.1000E+12  0.6350E-13  0.1130E-12  0.1790E-12  0.9030E-12  0.9940E-11  0.2970E-10  0.3580E-10  0.3710E-10  0.3740E-10  0.3740E-10  0.3670E-10  0.3490E-10  0.3240E-10  0.3060E-10
  0.1000E+13  0.2210E-12  0.3650E-12  0.5390E-12  0.1590E-11  0.4450E-11  0.4800E-11  0.4710E-11  0.4680E-11  0.4670E-11  0.4670E-11  0.4680E-11  0.4710E-11  0.4750E-11  0.4780E-11
  0.1000E+14  0.2850E-12  0.3480E-12  0.3810E-12  0.4380E-12  0.4520E-12  0.4320E-12  0.4260E-12  0.4240E-12  0.4230E-12  0.4230E-12  0.4220E-12  0.4220E-12  0.4230E-12  0.4240E-12
  0.1000E+15  0.5000E-13  0.5030E-13  0.4750E-13  0.4430E-13  0.4320E-13  0.4230E-13  0.4190E-13  0.4170E-13  0.4170E-13  0.4160E-13  0.4150E-13  0.4140E-13  0.4140E-13  0.4140E-13
  0.1000E+16  0.5300E-14  0.5190E-14  0.4820E-14  0.4420E-14  0.4300E-14  0.4220E-14  0.4180E-14  0.4170E-14  0.4160E-14  0.4150E-14  0.4140E-14  0.4140E-14  0.4130E-14  0.4130E-14
  0.1000E+17  0.5340E-15  0.5210E-15  0.4830E-15  0.4410E-15  0.4290E-15  0.4220E-15  0.4180E-15  0.4170E-15  0.4160E-15  0.4150E-15  0.4140E-15  0.4130E-15  0.4130E-15  0.4120E-15
WAVELENGTH(A)= 
  2210.530
 7 14 t 
excit   
     7.600     11.400     19.000     38.000     76.000    190.000    380.000    570.000    760.000   1140.000   1900.000   3800.000   7600.000  11400.000 
  0.1000E+11  0.3070E-11  0.4040E-11  0.5090E-11  0.1050E-10  0.7080E-10  0.2400E-09  0.3160E-09  0.3350E-09  0.3400E-09  0.3400E-09  0.3290E-09  0.3040E-09  0.2720E-09  0.2520E-09
  0.1000E+12  0.3040E-11  0.3980E-11  0.5010E-11  0.1010E-10  0.4910E-10  0.8440E-10  0.8680E-10  0.8670E-10  0.8660E-10  0.8640E-10  0.8630E-10  0.8600E-10  0.8500E-10  0.8390E-10
  0.1000E+13  0.2720E-11  0.3430E-11  0.4120E-11  0.6600E-11  0.8540E-11  0.5950E-11  0.5360E-11  0.5230E-11  0.5190E-11  0.5170E-11  0.5210E-11  0.5330E-11  0.5520E-11  0.5660E-11
  0.1000E+14  0.1020E-11  0.9580E-12  0.8540E-12  0.7150E-12  0.5140E-12  0.4290E-12  0.4110E-12  0.4060E-12  0.4030E-12  0.4010E-12  0.4000E-12  0.4000E-12  0.4020E-12  0.4030E-12
  0.1000E+15  0.1130E-12  0.8720E-13  0.6660E-13  0.5210E-13  0.4510E-13  0.4100E-13  0.3970E-13  0.3930E-13  0.3900E-13  0.3880E-13  0.3870E-13  0.3850E-13  0.3840E-13  0.3840E-13
  0.1000E+16  0.1120E-13  0.8420E-14  0.6300E-14  0.4960E-14  0.4450E-14  0.4080E-14  0.3950E-14  0.3910E-14  0.3890E-14  0.3870E-14  0.3850E-14  0.3830E-14  0.3830E-14  0.3820E-14
  0.1000E+17  0.1120E-14  0.8380E-15  0.6270E-15  0.4930E-15  0.4440E-15  0.4080E-15  0.3950E-15  0.3910E-15  0.3890E-15  0.3870E-15  0.3850E-15  0.3830E-15  0.3820E-15  0.3820E-15
WAVELENGTH(A)= 
  2273.810
 7 14 t 
excit   
     7.600     11.400     19.000     38.000     76.000    190.000    380.000    570.000    760.000   1140.000   1900.000   3800.000   7600.000  11400.000 
  0.1000E+11  0.2790E-13  0.4690E-13  0.6990E-13  0.3120E-12  0.3520E-11  0.1390E-10  0.1950E-10  0.2100E-10  0.2140E-10  0.2140E-10  0.2060E-10  0.1880E-10  0.1650E-10  0.1510E-10
  0.1000E+12  0.3300E-13  0.5600E-13  0.8460E-13  0.3570E-12  0.3270E-11  0.8440E-11  0.9860E-11  0.1010E-10  0.1020E-10  0.1020E-10  0.1010E-10  0.9680E-11  0.9110E-11  0.8700E-11
  0.1000E+13  0.6640E-13  0.1100E-12  0.1620E-12  0.4490E-12  0.1140E-11  0.1150E-11  0.1110E-11  0.1110E-11  0.1100E-11  0.1100E-11  0.1110E-11  0.1120E-11  0.1140E-11  0.1150E-11
  0.1000E+14  0.6330E-13  0.7970E-13  0.8920E-13  0.1030E-12  0.1050E-12  0.9910E-13  0.9750E-13  0.9710E-13  0.9690E-13  0.9670E-13  0.9670E-13  0.9680E-13  0.9710E-13  0.9740E-13
  0.1000E+15  0.1040E-13  0.1100E-13  0.1080E-13  0.1030E-13  0.9950E-14  0.9660E-14  0.9560E-14  0.9520E-14  0.9500E-14  0.9490E-14  0.9470E-14  0.9460E-14  0.9460E-14  0.9460E-14
  0.1000E+16  0.1100E-14  0.1130E-14  0.1090E-14  0.1020E-14  0.9880E-15  0.9630E-15  0.9540E-15  0.9500E-15  0.9480E-15  0.9470E-15  0.9450E-15  0.9440E-15  0.9430E-15  0.9430E-15
  0.1000E+17  0.1100E-15  0.1130E-15  0.1090E-15  0.1020E-15  0.9880E-16  0.9630E-16  0.9530E-16  0.9500E-16  0.9480E-16  0.9460E-16  0.9450E-16  0.9440E-16  0.9430E-16  0.9420E-16
WAVELENGTH(A)= 
  2493.080
 7 14 t 
excit   
     7.600     11.400     19.000     38.000     76.000    190.000    380.000    570.000    760.000   1140.000   1900.000   3800.000   7600.000  11400.000 
  0.1000E+11  0.7460E-14  0.1360E-13  0.2180E-13  0.1960E-12  0.2800E-11  0.1280E-10  0.1880E-10  0.2040E-10  0.2090E-10  0.2090E-10  0.2010E-10  0.1810E-10  0.1560E-10  0.1410E-10
  0.1000E+12  0.1370E-13  0.2470E-13  0.3970E-13  0.2600E-12  0.3240E-11  0.9730E-11  0.1170E-10  0.1210E-10  0.1220E-10  0.1220E-10  0.1200E-10  0.1150E-10  0.1080E-10  0.1020E-10
  0.1000E+13  0.5660E-13  0.9410E-13  0.1390E-12  0.4300E-12  0.1330E-11  0.1520E-11  0.1520E-11  0.1510E-11  0.1510E-11  0.1510E-11  0.1520E-11  0.1520E-11  0.1530E-11  0.1540E-11
  0.1000E+14  0.7790E-13  0.9860E-13  0.1110E-12  0.1310E-12  0.1450E-12  0.1440E-12  0.1430E-12  0.1420E-12  0.1420E-12  0.1420E-12  0.1420E-12  0.1420E-12  0.1420E-12  0.1420E-12
  0.1000E+15  0.1420E-13  0.1510E-13  0.1490E-13  0.1440E-13  0.1430E-13  0.1420E-13  0.1410E-13  0.1410E-13  0.1410E-13  0.1410E-13  0.1410E-13  0.1400E-13  0.1400E-13  0.1400E-13
  0.1000E+16  0.1510E-14  0.1570E-14  0.1530E-14  0.1450E-14  0.1420E-14  0.1420E-14  0.1410E-14  0.1410E-14  0.1410E-14  0.1410E-14  0.1400E-14  0.1400E-14  0.1400E-14  0.1400E-14
  0.1000E+17  0.1520E-15  0.1580E-15  0.1540E-15  0.1450E-15  0.1420E-15  0.1420E-15  0.1410E-15  0.1410E-15  0.1410E-15  0.1410E-15  0.1400E-15  0.1400E-15  0.1400E-15  0.1400E-15
WAVELENGTH(A)= 
  2533.380
 7 14 t 
excit   
     7.600     11.400     19.000     38.000     76.000    190.000    380.000    570.000    760.000   1140.000   1900.000   3800.000   7600.000  11400.000 
  0.1000E+11  0.3160E-12  0.4530E-12  0.5950E-12  0.1100E-11  0.6570E-11  0.2270E-10  0.3060E-10  0.3260E-10  0.3320E-10  0.3310E-10  0.3200E-10  0.2940E-10  0.2610E-10  0.2410E-10
  0.1000E+12  0.3060E-12  0.4380E-12  0.5730E-12  0.1060E-11  0.4990E-11  0.1020E-10  0.1120E-10  0.1140E-10  0.1140E-10  0.1140E-10  0.1130E-10  0.1110E-10  0.1070E-10  0.1030E-10
  0.1000E+13  0.2460E-12  0.3440E-12  0.4390E-12  0.7410E-12  0.1210E-11  0.1030E-11  0.9690E-12  0.9540E-12  0.9500E-12  0.9490E-12  0.9550E-12  0.9720E-12  0.9970E-12  0.1010E-11
  0.1000E+14  0.9150E-13  0.1030E-12  0.1050E-12  0.1040E-12  0.9070E-13  0.8090E-13  0.7860E-13  0.7800E-13  0.7770E-13  0.7750E-13  0.7740E-13  0.7750E-13  0.7790E-13  0.7820E-13
  0.1000E+15  0.1170E-13  0.1110E-13  0.9990E-14  0.8910E-14  0.8240E-14  0.7780E-14  0.7630E-14  0.7580E-14  0.7560E-14  0.7530E-14  0.7520E-14  0.7500E-14  0.7500E-14  0.7500E-14
  0.1000E+16  0.1190E-14  0.1110E-14  0.9820E-15  0.8700E-15  0.8150E-15  0.7750E-15  0.7610E-15  0.7560E-15  0.7540E-15  0.7510E-15  0.7490E-15  0.7470E-15  0.7470E-15  0.7460E-15
  0.1000E+17  0.1190E-15  0.1100E-15  0.9800E-16  0.8680E-16  0.8140E-16  0.7740E-16  0.7610E-16  0.7560E-16  0.7530E-16  0.7510E-16  0.7490E-16  0.7470E-16  0.7460E-16  0.7460E-16
WAVELENGTH(A)= 
  2614.170
 7 14 t 
excit   
     7.600     11.400     19.000     38.000     76.000    190.000    380.000    570.000    760.000   1140.000   1900.000   3800.000   7600.000  11400.000 
  0.1000E+11  0.3310E-13  0.5520E-13  0.8180E-13  0.4100E-12  0.4870E-11  0.1980E-10  0.2780E-10  0.2990E-10  0.3060E-10  0.3060E-10  0.2940E-10  0.2680E-10  0.2350E-10  0.2140E-10
  0.1000E+12  0.4440E-13  0.7490E-13  0.1130E-12  0.5060E-12  0.4680E-11  0.1130E-10  0.1280E-10  0.1310E-10  0.1310E-10  0.1310E-10  0.1300E-10  0.1260E-10  0.1210E-10  0.1160E-10
  0.1000E+13  0.9210E-13  0.1490E-12  0.2150E-12  0.5830E-12  0.1340E-11  0.1280E-11  0.1240E-11  0.1220E-11  0.1220E-11  0.1220E-11  0.1230E-11  0.1250E-11  0.1270E-11  0.1290E-11
  0.1000E+14  0.7130E-13  0.8900E-13  0.9910E-13  0.1140E-12  0.1140E-12  0.1070E-12  0.1060E-12  0.1050E-12  0.1050E-12  0.1050E-12  0.1050E-12  0.1050E-12  0.1050E-12  0.1060E-12
  0.1000E+15  0.1120E-13  0.1180E-13  0.1150E-13  0.1100E-13  0.1070E-13  0.1040E-13  0.1030E-13  0.1030E-13  0.1030E-13  0.1030E-13  0.1020E-13  0.1020E-13  0.1020E-13  0.1020E-13
  0.1000E+16  0.1170E-14  0.1200E-14  0.1160E-14  0.1090E-14  0.1060E-14  0.1040E-14  0.1030E-14  0.1030E-14  0.1020E-14  0.1020E-14  0.1020E-14  0.1020E-14  0.1020E-14  0.1020E-14
  0.1000E+17  0.1180E-15  0.1210E-15  0.1160E-15  0.1090E-15  0.1060E-15  0.1040E-15  0.1030E-15  0.1030E-15  0.1020E-15  0.1020E-15  0.1020E-15  0.1020E-15  0.1020E-15  0.1020E-15
WAVELENGTH(A)= 
  2624.050
 7 14 t 
excit   
     7.600     11.400     19.000     38.000     76.000    190.000    380.000    570.000    760.000   1140.000   1900.000   3800.000   7600.000  11400.000 
  0.1000E+11  0.2000E-13  0.3350E-13  0.4990E-13  0.2230E-12  0.2510E-11  0.9960E-11  0.1390E-10  0.1500E-10  0.1530E-10  0.1530E-10  0.1470E-10  0.1340E-10  0.1180E-10  0.1080E-10
  0.1000E+12  0.2360E-13  0.4000E-13  0.6040E-13  0.2550E-12  0.2340E-11  0.6030E-11  0.7050E-11  0.7250E-11  0.7300E-11  0.7300E-11  0.7190E-11  0.6920E-11  0.6510E-11  0.6220E-11
  0.1000E+13  0.4740E-13  0.7850E-13  0.1150E-12  0.3210E-12  0.8120E-12  0.8210E-12  0.7960E-12  0.7900E-12  0.7880E-12  0.7890E-12  0.7920E-12  0.8000E-12  0.8120E-12  0.8200E-12
  0.1000E+14  0.4530E-13  0.5690E-13  0.6370E-13  0.7390E-13  0.7510E-13  0.7080E-13  0.6970E-13  0.6940E-13  0.6920E-13  0.6910E-13  0.6910E-13  0.6920E-13  0.6940E-13  0.6960E-13
  0.1000E+15  0.7450E-14  0.7840E-14  0.7690E-14  0.7350E-14  0.7110E-14  0.6900E-14  0.6830E-14  0.6800E-14  0.6790E-14  0.6780E-14  0.6770E-14  0.6760E-14  0.6760E-14  0.6760E-14
  0.1000E+16  0.7850E-15  0.8070E-15  0.7790E-15  0.7320E-15  0.7060E-15  0.6880E-15  0.6810E-15  0.6790E-15  0.6780E-15  0.6760E-15  0.6750E-15  0.6750E-15  0.6740E-15  0.6740E-15
  0.1000E+17  0.7890E-16  0.8090E-16  0.7800E-16  0.7310E-16  0.7060E-16  0.6880E-16  0.6810E-16  0.6790E-16  0.6780E-16  0.6760E-16  0.6750E-16  0.6740E-16  0.6740E-16  0.6730E-16
WAVELENGTH(A)= 
  2664.180
 7 14 t 
excit   
     7.600     11.400     19.000     38.000     76.000    190.000    380.000    570.000    760.000   1140.000   1900.000   3800.000   7600.000  11400.000 
  0.1000E+11  0.2010E-13  0.3370E-13  0.5030E-13  0.2250E-12  0.2530E-11  0.1000E-10  0.1400E-10  0.1510E-10  0.1540E-10  0.1540E-10  0.1480E-10  0.1350E-10  0.1190E-10  0.1090E-10
  0.1000E+12  0.2380E-13  0.4030E-13  0.6090E-13  0.2570E-12  0.2350E-11  0.6070E-11  0.7090E-11  0.7300E-11  0.7350E-11  0.7350E-11  0.7240E-11  0.6960E-11  0.6550E-11  0.6260E-11
  0.1000E+13  0.4770E-13  0.7910E-13  0.1160E-12  0.3230E-12  0.8180E-12  0.8270E-12  0.8020E-12  0.7960E-12  0.7940E-12  0.7940E-12  0.7970E-12  0.8060E-12  0.8180E-12  0.8260E-12
  0.1000E+14  0.4560E-13  0.5730E-13  0.6410E-13  0.7440E-13  0.7560E-13  0.7130E-13  0.7020E-13  0.6980E-13  0.6970E-13  0.6960E-13  0.6960E-13  0.6970E-13  0.6990E-13  0.7010E-13
  0.1000E+15  0.7500E-14  0.7900E-14  0.7740E-14  0.7400E-14  0.7160E-14  0.6950E-14  0.6870E-14  0.6850E-14  0.6840E-14  0.6820E-14  0.6810E-14  0.6810E-14  0.6810E-14  0.6800E-14
  0.1000E+16  0.7900E-15  0.8120E-15  0.7840E-15  0.7360E-15  0.7110E-15  0.6930E-15  0.6860E-15  0.6840E-15  0.6820E-15  0.6810E-15  0.6800E-15  0.6790E-15  0.6790E-15  0.6780E-15
  0.1000E+17  0.7940E-16  0.8150E-16  0.7850E-16  0.7360E-16  0.7110E-16  0.6930E-16  0.6860E-16  0.6830E-16  0.6820E-16  0.6810E-16  0.6800E-16  0.6790E-16  0.6780E-16  0.6780E-16
WAVELENGTH(A)= 
  2906.300
 7 14 t 
excit   
     7.600     11.400     19.000     38.000     76.000    190.000    380.000    570.000    760.000   1140.000   1900.000   3800.000   7600.000  11400.000 
  0.1000E+11  0.1050E-12  0.1540E-12  0.2070E-12  0.6160E-12  0.5750E-11  0.2130E-10  0.2890E-10  0.3080E-10  0.3140E-10  0.3140E-10  0.3030E-10  0.2790E-10  0.2480E-10  0.2280E-10
  0.1000E+12  0.1070E-12  0.1570E-12  0.2120E-12  0.6290E-12  0.4420E-11  0.8740E-11  0.9320E-11  0.9390E-11  0.9420E-11  0.9420E-11  0.9400E-11  0.9300E-11  0.9110E-11  0.8940E-11
  0.1000E+13  0.1090E-12  0.1580E-12  0.2080E-12  0.4730E-12  0.8820E-12  0.7240E-12  0.6750E-12  0.6650E-12  0.6620E-12  0.6620E-12  0.6660E-12  0.6790E-12  0.6990E-12  0.7130E-12
  0.1000E+14  0.5540E-13  0.6220E-13  0.6380E-13  0.6760E-13  0.6190E-13  0.5570E-13  0.5420E-13  0.5380E-13  0.5360E-13  0.5350E-13  0.5340E-13  0.5350E-13  0.5370E-13  0.5390E-13
  0.1000E+15  0.7860E-14  0.7420E-14  0.6660E-14  0.5970E-14  0.5620E-14  0.5350E-14  0.5260E-14  0.5230E-14  0.5220E-14  0.5200E-14  0.5190E-14  0.5180E-14  0.5170E-14  0.5170E-14
  0.1000E+16  0.8140E-15  0.7500E-15  0.6630E-15  0.5860E-15  0.5550E-15  0.5330E-15  0.5240E-15  0.5210E-15  0.5200E-15  0.5180E-15  0.5170E-15  0.5160E-15  0.5150E-15  0.5150E-15
  0.1000E+17  0.8160E-16  0.7500E-16  0.6630E-16  0.5840E-16  0.5550E-16  0.5330E-16  0.5240E-16  0.5210E-16  0.5200E-16  0.5180E-16  0.5170E-16  0.5160E-16  0.5150E-16  0.5140E-16
WAVELENGTH(A)= 
  3050.640
 7 14 t 
excit   
     7.600     11.400     19.000     38.000     76.000    190.000    380.000    570.000    760.000   1140.000   1900.000   3800.000   7600.000  11400.000 
  0.1000E+11  0.4970E-13  0.7930E-13  0.1150E-12  0.3480E-12  0.3180E-11  0.1190E-10  0.1640E-10  0.1750E-10  0.1790E-10  0.1780E-10  0.1720E-10  0.1580E-10  0.1390E-10  0.1280E-10
  0.1000E+12  0.5270E-13  0.8440E-13  0.1220E-12  0.3690E-12  0.2690E-11  0.6150E-11  0.6940E-11  0.7090E-11  0.7130E-11  0.7120E-11  0.7040E-11  0.6830E-11  0.6510E-11  0.6270E-11
  0.1000E+13  0.6840E-13  0.1060E-12  0.1490E-12  0.3530E-12  0.7730E-12  0.7550E-12  0.7300E-12  0.7240E-12  0.7220E-12  0.7220E-12  0.7240E-12  0.7310E-12  0.7400E-12  0.7470E-12
  0.1000E+14  0.4820E-13  0.5840E-13  0.6340E-13  0.7080E-13  0.7030E-13  0.6610E-13  0.6490E-13  0.6450E-13  0.6440E-13  0.6430E-13  0.6420E-13  0.6420E-13  0.6440E-13  0.6450E-13
  0.1000E+15  0.7600E-14  0.7760E-14  0.7430E-14  0.6980E-14  0.6700E-14  0.6460E-14  0.6380E-14  0.6350E-14  0.6330E-14  0.6320E-14  0.6300E-14  0.6290E-14  0.6290E-14  0.6290E-14
  0.1000E+16  0.7970E-15  0.7960E-15  0.7510E-15  0.6940E-15  0.6660E-15  0.6440E-15  0.6360E-15  0.6330E-15  0.6320E-15  0.6300E-15  0.6290E-15  0.6280E-15  0.6270E-15  0.6270E-15
  0.1000E+17  0.8010E-16  0.7980E-16  0.7510E-16  0.6930E-16  0.6660E-16  0.6440E-16  0.6360E-16  0.6330E-16  0.6320E-16  0.6300E-16  0.6290E-16  0.6280E-16  0.6270E-16  0.6270E-16
WAVELENGTH(A)= 
  3353.120
 7 14 t 
excit   
     7.600     11.400     19.000     38.000     76.000    190.000    380.000    570.000    760.000   1140.000   1900.000   3800.000   7600.000  11400.000 
  0.1000E+11  0.6550E-14  0.1180E-13  0.1900E-13  0.1940E-12  0.3510E-11  0.2210E-10  0.3500E-10  0.3870E-10  0.3980E-10  0.3980E-10  0.3790E-10  0.3350E-10  0.2800E-10  0.2480E-10
  0.1000E+12  0.1780E-13  0.3050E-13  0.4700E-13  0.3160E-12  0.5680E-11  0.1750E-10  0.2020E-10  0.2070E-10  0.2090E-10  0.2100E-10  0.2090E-10  0.2050E-10  0.1970E-10  0.1900E-10
  0.1000E+13  0.8140E-13  0.1190E-12  0.1560E-12  0.4670E-12  0.1700E-11  0.1970E-11  0.1950E-11  0.1950E-11  0.1950E-11  0.1950E-11  0.1960E-11  0.1980E-11  0.2010E-11  0.2030E-11
  0.1000E+14  0.1330E-12  0.1450E-12  0.1450E-12  0.1580E-12  0.1770E-12  0.1780E-12  0.1770E-12  0.1770E-12  0.1770E-12  0.1770E-12  0.1770E-12  0.1770E-12  0.1770E-12  0.1770E-12
  0.1000E+15  0.2540E-13  0.2340E-13  0.2050E-13  0.1810E-13  0.1750E-13  0.1750E-13  0.1750E-13  0.1740E-13  0.1740E-13  0.1740E-13  0.1740E-13  0.1740E-13  0.1740E-13  0.1730E-13
  0.1000E+16  0.2720E-14  0.2450E-14  0.2120E-14  0.1840E-14  0.1750E-14  0.1750E-14  0.1750E-14  0.1740E-14  0.1740E-14  0.1740E-14  0.1740E-14  0.1730E-14  0.1730E-14  0.1730E-14
  0.1000E+17  0.2740E-15  0.2460E-15  0.2130E-15  0.1840E-15  0.1750E-15  0.1750E-15  0.1750E-15  0.1740E-15  0.1740E-15  0.1740E-15  0.1740E-15  0.1730E-15  0.1730E-15  0.1730E-15
WAVELENGTH(A)= 
  3399.390
 7 14 t 
excit   
     7.600     11.400     19.000     38.000     76.000    190.000    380.000    570.000    760.000   1140.000   1900.000   3800.000   7600.000  11400.000 
  0.1000E+11  0.9770E-13  0.1600E-12  0.2390E-12  0.1390E-11  0.1750E-10  0.7240E-10  0.1020E-09  0.1100E-09  0.1120E-09  0.1110E-09  0.1070E-09  0.9710E-10  0.8460E-10  0.7700E-10
  0.1000E+12  0.2080E-12  0.3330E-12  0.4910E-12  0.2220E-11  0.1880E-10  0.3780E-10  0.4040E-10  0.4070E-10  0.4070E-10  0.4070E-10  0.4050E-10  0.3990E-10  0.3880E-10  0.3790E-10
  0.1000E+13  0.4580E-12  0.6560E-12  0.8640E-12  0.2170E-11  0.3990E-11  0.3270E-11  0.3060E-11  0.3020E-11  0.3010E-11  0.3000E-11  0.3020E-11  0.3070E-11  0.3150E-11  0.3200E-11
  0.1000E+14  0.2700E-12  0.2940E-12  0.2950E-12  0.3110E-12  0.2850E-12  0.2590E-12  0.2530E-12  0.2510E-12  0.2500E-12  0.2490E-12  0.2490E-12  0.2490E-12  0.2500E-12  0.2510E-12
  0.1000E+15  0.3890E-13  0.3570E-13  0.3140E-13  0.2770E-13  0.2610E-13  0.2500E-13  0.2460E-13  0.2450E-13  0.2440E-13  0.2430E-13  0.2430E-13  0.2420E-13  0.2420E-13  0.2420E-13
  0.1000E+16  0.4040E-14  0.3620E-14  0.3130E-14  0.2720E-14  0.2580E-14  0.2490E-14  0.2450E-14  0.2440E-14  0.2440E-14  0.2430E-14  0.2420E-14  0.2420E-14  0.2410E-14  0.2410E-14
  0.1000E+17  0.4050E-15  0.3620E-15  0.3130E-15  0.2720E-15  0.2580E-15  0.2490E-15  0.2450E-15  0.2440E-15  0.2430E-15  0.2430E-15  0.2420E-15  0.2420E-15  0.2410E-15  0.2410E-15
WAVELENGTH(A)= 
  3432.650
 7 14 t 
excit   
     7.600     11.400     19.000     38.000     76.000    190.000    380.000    570.000    760.000   1140.000   1900.000   3800.000   7600.000  11400.000 
  0.1000E+11  0.1190E-13  0.2130E-13  0.3380E-13  0.1940E-12  0.2480E-11  0.1110E-10  0.1620E-10  0.1760E-10  0.1800E-10  0.1800E-10  0.1730E-10  0.1550E-10  0.1340E-10  0.1210E-10
  0.1000E+12  0.1960E-13  0.3470E-13  0.5520E-13  0.2780E-12  0.3060E-11  0.9130E-11  0.1100E-10  0.1140E-10  0.1150E-10  0.1150E-10  0.1130E-10  0.1070E-10  0.9960E-11  0.9420E-11
  0.1000E+13  0.6790E-13  0.1120E-12  0.1660E-12  0.4890E-12  0.1370E-11  0.1480E-11  0.1450E-11  0.1440E-11  0.1440E-11  0.1440E-11  0.1440E-11  0.1450E-11  0.1460E-11  0.1470E-11
  0.1000E+14  0.8780E-13  0.1070E-12  0.1170E-12  0.1350E-12  0.1390E-12  0.1330E-12  0.1310E-12  0.1310E-12  0.1300E-12  0.1300E-12  0.1300E-12  0.1300E-12  0.1300E-12  0.1300E-12
  0.1000E+15  0.1540E-13  0.1550E-13  0.1460E-13  0.1360E-13  0.1330E-13  0.1300E-13  0.1290E-13  0.1280E-13  0.1280E-13  0.1280E-13  0.1280E-13  0.1280E-13  0.1270E-13  0.1270E-13
  0.1000E+16  0.1630E-14  0.1600E-14  0.1480E-14  0.1360E-14  0.1320E-14  0.1300E-14  0.1290E-14  0.1280E-14  0.1280E-14  0.1280E-14  0.1270E-14  0.1270E-14  0.1270E-14  0.1270E-14
  0.1000E+17  0.1640E-15  0.1600E-15  0.1490E-15  0.1360E-15  0.1320E-15  0.1300E-15  0.1290E-15  0.1280E-15  0.1280E-15  0.1280E-15  0.1270E-15  0.1270E-15  0.1270E-15  0.1270E-15
WAVELENGTH(A)= 
  3958.040
 7 14 t 
excit   
     7.600     11.400     19.000     38.000     76.000    190.000    380.000    570.000    760.000   1140.000   1900.000   3800.000   7600.000  11400.000 
  0.1000E+11  0.1540E-13  0.2560E-13  0.3800E-13  0.1900E-12  0.2260E-11  0.9190E-11  0.1290E-10  0.1390E-10  0.1420E-10  0.1420E-10  0.1370E-10  0.1240E-10  0.1090E-10  0.9960E-11
  0.1000E+12  0.2060E-13  0.3480E-13  0.5260E-13  0.2350E-12  0.2180E-11  0.5240E-11  0.5940E-11  0.6070E-11  0.6100E-11  0.6110E-11  0.6050E-11  0.5880E-11  0.5610E-11  0.5410E-11
  0.1000E+13  0.4280E-13  0.6910E-13  0.9970E-13  0.2710E-12  0.6250E-12  0.5970E-12  0.5740E-12  0.5690E-12  0.5680E-12  0.5680E-12  0.5710E-12  0.5790E-12  0.5900E-12  0.5980E-12
  0.1000E+14  0.3310E-13  0.4140E-13  0.4610E-13  0.5300E-13  0.5300E-13  0.4990E-13  0.4910E-13  0.4890E-13  0.4880E-13  0.4870E-13  0.4870E-13  0.4880E-13  0.4900E-13  0.4910E-13
  0.1000E+15  0.5200E-14  0.5470E-14  0.5360E-14  0.5130E-14  0.4970E-14  0.4840E-14  0.4800E-14  0.4780E-14  0.4770E-14  0.4770E-14  0.4760E-14  0.4750E-14  0.4750E-14  0.4750E-14
  0.1000E+16  0.5440E-15  0.5600E-15  0.5410E-15  0.5090E-15  0.4930E-15  0.4830E-15  0.4790E-15  0.4770E-15  0.4760E-15  0.4760E-15  0.4750E-15  0.4740E-15  0.4740E-15  0.4740E-15
  0.1000E+17  0.5470E-16  0.5610E-16  0.5410E-16  0.5080E-16  0.4930E-16  0.4830E-16  0.4790E-16  0.4770E-16  0.4760E-16  0.4760E-16  0.4750E-16  0.4740E-16  0.4740E-16  0.4740E-16
WAVELENGTH(A)= 
  4193.050
 7 14 t 
excit   
     7.600     11.400     19.000     38.000     76.000    190.000    380.000    570.000    760.000   1140.000   1900.000   3800.000   7600.000  11400.000 
  0.1000E+11  0.6390E-13  0.9380E-13  0.1260E-12  0.3740E-12  0.3500E-11  0.1290E-10  0.1760E-10  0.1870E-10  0.1910E-10  0.1910E-10  0.1840E-10  0.1700E-10  0.1510E-10  0.1390E-10
  0.1000E+12  0.6490E-13  0.9570E-13  0.1290E-12  0.3820E-12  0.2690E-11  0.5310E-11  0.5660E-11  0.5710E-11  0.5720E-11  0.5730E-11  0.5710E-11  0.5650E-11  0.5540E-11  0.5430E-11
  0.1000E+13  0.6640E-13  0.9590E-13  0.1260E-12  0.2880E-12  0.5360E-12  0.4400E-12  0.4110E-12  0.4040E-12  0.4020E-12  0.4020E-12  0.4050E-12  0.4130E-12  0.4250E-12  0.4340E-12
  0.1000E+14  0.3370E-13  0.3780E-13  0.3880E-13  0.4110E-13  0.3760E-13  0.3380E-13  0.3300E-13  0.3270E-13  0.3260E-13  0.3250E-13  0.3250E-13  0.3250E-13  0.3270E-13  0.3280E-13
  0.1000E+15  0.4780E-14  0.4510E-14  0.4050E-14  0.3630E-14  0.3410E-14  0.3250E-14  0.3200E-14  0.3180E-14  0.3170E-14  0.3160E-14  0.3150E-14  0.3150E-14  0.3140E-14  0.3140E-14
  0.1000E+16  0.4950E-15  0.4560E-15  0.4030E-15  0.3560E-15  0.3380E-15  0.3240E-15  0.3190E-15  0.3170E-15  0.3160E-15  0.3150E-15  0.3140E-15  0.3140E-15  0.3130E-15  0.3130E-15
  0.1000E+17  0.4960E-16  0.4560E-16  0.4030E-16  0.3550E-16  0.3370E-16  0.3240E-16  0.3190E-16  0.3170E-16  0.3160E-16  0.3150E-16  0.3140E-16  0.3130E-16  0.3130E-16  0.3130E-16
WAVELENGTH(A)= 
  4758.280
 7 14 t 
excit   
     7.600     11.400     19.000     38.000     76.000    190.000    380.000    570.000    760.000   1140.000   1900.000   3800.000   7600.000  11400.000 
  0.1000E+11  0.1180E-13  0.1950E-13  0.2890E-13  0.1770E-12  0.2340E-11  0.1050E-10  0.1530E-10  0.1660E-10  0.1700E-10  0.1700E-10  0.1630E-10  0.1470E-10  0.1270E-10  0.1150E-10
  0.1000E+12  0.1960E-13  0.3310E-13  0.5000E-13  0.2520E-12  0.2730E-11  0.7390E-11  0.8590E-11  0.8820E-11  0.8890E-11  0.8890E-11  0.8780E-11  0.8480E-11  0.8020E-11  0.7680E-11
  0.1000E+13  0.5600E-13  0.8860E-13  0.1260E-12  0.3540E-12  0.9310E-12  0.9740E-12  0.9550E-12  0.9510E-12  0.9500E-12  0.9500E-12  0.9530E-12  0.9600E-12  0.9710E-12  0.9780E-12
  0.1000E+14  0.5610E-13  0.6830E-13  0.7450E-13  0.8550E-13  0.9020E-13  0.8780E-13  0.8690E-13  0.8670E-13  0.8660E-13  0.8640E-13  0.8640E-13  0.8650E-13  0.8660E-13  0.8670E-13
  0.1000E+15  0.9530E-14  0.9800E-14  0.9430E-14  0.8910E-14  0.8740E-14  0.8630E-14  0.8570E-14  0.8550E-14  0.8540E-14  0.8530E-14  0.8520E-14  0.8510E-14  0.8500E-14  0.8500E-14
  0.1000E+16  0.1010E-14  0.1010E-14  0.9610E-15  0.8920E-15  0.8700E-15  0.8610E-15  0.8560E-15  0.8540E-15  0.8530E-15  0.8510E-15  0.8510E-15  0.8490E-15  0.8480E-15  0.8480E-15
  0.1000E+17  0.1010E-15  0.1020E-15  0.9630E-16  0.8920E-16  0.8700E-16  0.8610E-16  0.8560E-16  0.8540E-16  0.8530E-16  0.8510E-16  0.8500E-16  0.8490E-16  0.8480E-16  0.8480E-16
WAVELENGTH(A)= 
  4789.270
 7 14 t 
excit   
     7.600     11.400     19.000     38.000     76.000    190.000    380.000    570.000    760.000   1140.000   1900.000   3800.000   7600.000  11400.000 
  0.1000E+11  0.1650E-12  0.2300E-12  0.2980E-12  0.7960E-12  0.6900E-11  0.2480E-10  0.3340E-10  0.3560E-10  0.3620E-10  0.3620E-10  0.3500E-10  0.3220E-10  0.2870E-10  0.2640E-10
  0.1000E+12  0.1680E-12  0.2360E-12  0.3080E-12  0.8130E-12  0.5270E-11  0.1030E-10  0.1100E-10  0.1110E-10  0.1110E-10  0.1110E-10  0.1110E-10  0.1090E-10  0.1060E-10  0.1040E-10
  0.1000E+13  0.1810E-12  0.2500E-12  0.3190E-12  0.6630E-12  0.1130E-11  0.8860E-12  0.8160E-12  0.8000E-12  0.7950E-12  0.7940E-12  0.7990E-12  0.8150E-12  0.8400E-12  0.8580E-12
  0.1000E+14  0.9270E-13  0.9690E-13  0.9380E-13  0.9240E-13  0.7700E-13  0.6660E-13  0.6430E-13  0.6360E-13  0.6330E-13  0.6310E-13  0.6300E-13  0.6300E-13  0.6330E-13  0.6360E-13
  0.1000E+15  0.1250E-13  0.1070E-13  0.8970E-14  0.7590E-14  0.6860E-14  0.6370E-14  0.6220E-14  0.6170E-14  0.6140E-14  0.6120E-14  0.6090E-14  0.6080E-14  0.6070E-14  0.6070E-14
  0.1000E+16  0.1280E-14  0.1070E-14  0.8790E-15  0.7360E-15  0.6770E-15  0.6350E-15  0.6200E-15  0.6150E-15  0.6120E-15  0.6100E-15  0.6070E-15  0.6060E-15  0.6050E-15  0.6040E-15
  0.1000E+17  0.1280E-15  0.1070E-15  0.8780E-16  0.7330E-16  0.6760E-16  0.6340E-16  0.6200E-16  0.6150E-16  0.6120E-16  0.6100E-16  0.6070E-16  0.6050E-16  0.6040E-16  0.6040E-16
WAVELENGTH(A)= 
  4932.430
 7 14 t 
excit   
     7.600     11.400     19.000     38.000     76.000    190.000    380.000    570.000    760.000   1140.000   1900.000   3800.000   7600.000  11400.000 
  0.1000E+11  0.2720E-13  0.4530E-13  0.6710E-13  0.3360E-12  0.4000E-11  0.1620E-10  0.2280E-10  0.2460E-10  0.2510E-10  0.2510E-10  0.2410E-10  0.2200E-10  0.1930E-10  0.1760E-10
  0.1000E+12  0.3640E-13  0.6150E-13  0.9280E-13  0.4150E-12  0.3840E-11  0.9240E-11  0.1050E-10  0.1070E-10  0.1080E-10  0.1080E-10  0.1070E-10  0.1040E-10  0.9900E-11  0.9540E-11
  0.1000E+13  0.7560E-13  0.1220E-12  0.1760E-12  0.4780E-12  0.1100E-11  0.1050E-11  0.1010E-11  0.1000E-11  0.1000E-11  0.1000E-11  0.1010E-11  0.1020E-11  0.1040E-11  0.1060E-11
  0.1000E+14  0.5850E-13  0.7310E-13  0.8130E-13  0.9360E-13  0.9350E-13  0.8800E-13  0.8660E-13  0.8630E-13  0.8610E-13  0.8600E-13  0.8600E-13  0.8610E-13  0.8640E-13  0.8670E-13
  0.1000E+15  0.9170E-14  0.9650E-14  0.9460E-14  0.9050E-14  0.8770E-14  0.8550E-14  0.8470E-14  0.8440E-14  0.8430E-14  0.8410E-14  0.8400E-14  0.8390E-14  0.8390E-14  0.8390E-14
  0.1000E+16  0.9610E-15  0.9880E-15  0.9540E-15  0.8980E-15  0.8710E-15  0.8520E-15  0.8450E-15  0.8420E-15  0.8410E-15  0.8390E-15  0.8380E-15  0.8370E-15  0.8360E-15  0.8360E-15
  0.1000E+17  0.9650E-16  0.9900E-16  0.9550E-16  0.8970E-16  0.8700E-16  0.8520E-16  0.8450E-16  0.8420E-16  0.8410E-16  0.8390E-16  0.8380E-16  0.8370E-16  0.8360E-16  0.8360E-16
WAVELENGTH(A)= 
  5302.790
 7 14 t 
excit   
     7.600     11.400     19.000     38.000     76.000    190.000    380.000    570.000    760.000   1140.000   1900.000   3800.000   7600.000  11400.000 
  0.1000E+11  0.4710E-13  0.7710E-13  0.1150E-12  0.6720E-12  0.8430E-11  0.3490E-10  0.4910E-10  0.5280E-10  0.5380E-10  0.5370E-10  0.5160E-10  0.4680E-10  0.4080E-10  0.3710E-10
  0.1000E+12  0.1000E-12  0.1610E-12  0.2370E-12  0.1070E-11  0.9030E-11  0.1820E-10  0.1940E-10  0.1960E-10  0.1960E-10  0.1960E-10  0.1950E-10  0.1920E-10  0.1870E-10  0.1830E-10
  0.1000E+13  0.2200E-12  0.3160E-12  0.4160E-12  0.1050E-11  0.1920E-11  0.1570E-11  0.1480E-11  0.1450E-11  0.1450E-11  0.1450E-11  0.1450E-11  0.1480E-11  0.1520E-11  0.1540E-11
  0.1000E+14  0.1300E-12  0.1420E-12  0.1420E-12  0.1500E-12  0.1370E-12  0.1250E-12  0.1220E-12  0.1210E-12  0.1200E-12  0.1200E-12  0.1200E-12  0.1200E-12  0.1200E-12  0.1210E-12
  0.1000E+15  0.1880E-13  0.1720E-13  0.1510E-13  0.1340E-13  0.1260E-13  0.1200E-13  0.1190E-13  0.1180E-13  0.1180E-13  0.1170E-13  0.1170E-13  0.1170E-13  0.1170E-13  0.1160E-13
  0.1000E+16  0.1940E-14  0.1740E-14  0.1510E-14  0.1310E-14  0.1240E-14  0.1200E-14  0.1180E-14  0.1180E-14  0.1170E-14  0.1170E-14  0.1170E-14  0.1160E-14  0.1160E-14  0.1160E-14
  0.1000E+17  0.1950E-15  0.1750E-15  0.1510E-15  0.1310E-15  0.1240E-15  0.1200E-15  0.1180E-15  0.1180E-15  0.1170E-15  0.1170E-15  0.1170E-15  0.1160E-15  0.1160E-15  0.1160E-15
WAVELENGTH(A)= 
  5378.370
 7 14 t 
excit   
     7.600     11.400     19.000     38.000     76.000    190.000    380.000    570.000    760.000   1140.000   1900.000   3800.000   7600.000  11400.000 
  0.1000E+11  0.2130E-12  0.3060E-12  0.4010E-12  0.7420E-12  0.4430E-11  0.1530E-10  0.2060E-10  0.2200E-10  0.2230E-10  0.2230E-10  0.2160E-10  0.1980E-10  0.1760E-10  0.1620E-10
  0.1000E+12  0.2060E-12  0.2950E-12  0.3860E-12  0.7140E-12  0.3370E-11  0.6880E-11  0.7570E-11  0.7680E-11  0.7710E-11  0.7700E-11  0.7640E-11  0.7460E-11  0.7180E-11  0.6970E-11
  0.1000E+13  0.1660E-12  0.2320E-12  0.2960E-12  0.4990E-12  0.8150E-12  0.6960E-12  0.6530E-12  0.6430E-12  0.6400E-12  0.6390E-12  0.6440E-12  0.6550E-12  0.6720E-12  0.6840E-12
  0.1000E+14  0.6170E-13  0.6910E-13  0.7050E-13  0.7010E-13  0.6110E-13  0.5450E-13  0.5300E-13  0.5260E-13  0.5240E-13  0.5220E-13  0.5220E-13  0.5220E-13  0.5250E-13  0.5270E-13
  0.1000E+15  0.7870E-14  0.7460E-14  0.6730E-14  0.6010E-14  0.5550E-14  0.5240E-14  0.5140E-14  0.5110E-14  0.5090E-14  0.5080E-14  0.5060E-14  0.5050E-14  0.5050E-14  0.5050E-14
  0.1000E+16  0.8030E-15  0.7450E-15  0.6620E-15  0.5860E-15  0.5490E-15  0.5220E-15  0.5130E-15  0.5090E-15  0.5080E-15  0.5060E-15  0.5050E-15  0.5040E-15  0.5030E-15  0.5030E-15
  0.1000E+17  0.8050E-16  0.7440E-16  0.6610E-16  0.5850E-16  0.5490E-16  0.5220E-16  0.5130E-16  0.5090E-16  0.5080E-16  0.5060E-16  0.5050E-16  0.5030E-16  0.5030E-16  0.5030E-16
WAVELENGTH(A)= 
  5745.480
 7 14 t 
excit   
     7.600     11.400     19.000     38.000     76.000    190.000    380.000    570.000    760.000   1140.000   1900.000   3800.000   7600.000  11400.000 
  0.1000E+11  0.1210E-12  0.1780E-12  0.2390E-12  0.7110E-12  0.6640E-11  0.2460E-10  0.3330E-10  0.3560E-10  0.3620E-10  0.3620E-10  0.3500E-10  0.3220E-10  0.2860E-10  0.2640E-10
  0.1000E+12  0.1230E-12  0.1820E-12  0.2450E-12  0.7260E-12  0.5110E-11  0.1010E-10  0.1080E-10  0.1080E-10  0.1090E-10  0.1090E-10  0.1090E-10  0.1070E-10  0.1050E-10  0.1030E-10
  0.1000E+13  0.1260E-12  0.1820E-12  0.2400E-12  0.5470E-12  0.1020E-11  0.8360E-12  0.7800E-12  0.7680E-12  0.7650E-12  0.7640E-12  0.7700E-12  0.7850E-12  0.8070E-12  0.8240E-12
  0.1000E+14  0.6390E-13  0.7190E-13  0.7370E-13  0.7810E-13  0.7140E-13  0.6430E-13  0.6260E-13  0.6210E-13  0.6200E-13  0.6180E-13  0.6170E-13  0.6180E-13  0.6210E-13  0.6230E-13
  0.1000E+15  0.9080E-14  0.8560E-14  0.7690E-14  0.6900E-14  0.6490E-14  0.6180E-14  0.6080E-14  0.6040E-14  0.6020E-14  0.6010E-14  0.5990E-14  0.5980E-14  0.5970E-14  0.5970E-14
  0.1000E+16  0.9400E-15  0.8660E-15  0.7660E-15  0.6760E-15  0.6410E-15  0.6160E-15  0.6060E-15  0.6020E-15  0.6010E-15  0.5990E-15  0.5970E-15  0.5960E-15  0.5950E-15  0.5940E-15
  0.1000E+17  0.9430E-16  0.8670E-16  0.7650E-16  0.6750E-16  0.6410E-16  0.6150E-16  0.6060E-16  0.6020E-16  0.6010E-16  0.5990E-16  0.5970E-16  0.5960E-16  0.5950E-16  0.5940E-16
WAVELENGTH(A)= 
  6086.800
 7 14 t 
excit   
     7.600     11.400     19.000     38.000     76.000    190.000    380.000    570.000    760.000   1140.000   1900.000   3800.000   7600.000  11400.000 
  0.1000E+11  0.1480E-12  0.2150E-12  0.2910E-12  0.1100E-11  0.1160E-10  0.4320E-10  0.5820E-10  0.6200E-10  0.6310E-10  0.6310E-10  0.6110E-10  0.5650E-10  0.5040E-10  0.4660E-10
  0.1000E+12  0.1610E-12  0.2350E-12  0.3180E-12  0.1140E-11  0.8240E-11  0.1360E-10  0.1360E-10  0.1360E-10  0.1350E-10  0.1360E-10  0.1360E-10  0.1380E-10  0.1390E-10  0.1390E-10
  0.1000E+13  0.1690E-12  0.2280E-12  0.2860E-12  0.6640E-12  0.1100E-11  0.8060E-12  0.7370E-12  0.7220E-12  0.7180E-12  0.7180E-12  0.7240E-12  0.7410E-12  0.7670E-12  0.7880E-12
  0.1000E+14  0.7750E-13  0.7910E-13  0.7500E-13  0.7570E-13  0.6680E-13  0.5900E-13  0.5730E-13  0.5680E-13  0.5650E-13  0.5640E-13  0.5630E-13  0.5630E-13  0.5650E-13  0.5680E-13
  0.1000E+15  0.1080E-13  0.9240E-14  0.7680E-14  0.6500E-14  0.5990E-14  0.5660E-14  0.5550E-14  0.5510E-14  0.5490E-14  0.5470E-14  0.5450E-14  0.5440E-14  0.5430E-14  0.5430E-14
  0.1000E+16  0.1120E-14  0.9330E-15  0.7630E-15  0.6360E-15  0.5920E-15  0.5640E-15  0.5530E-15  0.5490E-15  0.5470E-15  0.5450E-15  0.5430E-15  0.5420E-15  0.5400E-15  0.5400E-15
  0.1000E+17  0.1120E-15  0.9330E-16  0.7620E-16  0.6350E-16  0.5910E-16  0.5630E-16  0.5530E-16  0.5490E-16  0.5470E-16  0.5450E-16  0.5430E-16  0.5410E-16  0.5400E-16  0.5400E-16
WAVELENGTH(A)= 
  6117.330
 7 14 t 
excit   
     7.600     11.400     19.000     38.000     76.000    190.000    380.000    570.000    760.000   1140.000   1900.000   3800.000   7600.000  11400.000 
  0.1000E+11  0.3820E-14  0.6690E-14  0.1050E-13  0.9910E-13  0.1570E-11  0.8560E-11  0.1330E-10  0.1470E-10  0.1510E-10  0.1510E-10  0.1430E-10  0.1270E-10  0.1070E-10  0.9510E-11
  0.1000E+12  0.9570E-14  0.1670E-13  0.2620E-13  0.1660E-12  0.2530E-11  0.8660E-11  0.1060E-10  0.1100E-10  0.1110E-10  0.1110E-10  0.1090E-10  0.1040E-10  0.9690E-11  0.9170E-11
  0.1000E+13  0.4830E-13  0.7690E-13  0.1090E-12  0.3360E-12  0.1180E-11  0.1430E-11  0.1440E-11  0.1440E-11  0.1440E-11  0.1440E-11  0.1440E-11  0.1450E-11  0.1450E-11  0.1450E-11
  0.1000E+14  0.8140E-13  0.9760E-13  0.1050E-12  0.1210E-12  0.1380E-12  0.1400E-12  0.1400E-12  0.1400E-12  0.1390E-12  0.1390E-12  0.1390E-12  0.1390E-12  0.1390E-12  0.1390E-12
  0.1000E+15  0.1560E-13  0.1570E-13  0.1480E-13  0.1380E-13  0.1380E-13  0.1390E-13  0.1390E-13  0.1390E-13  0.1390E-13  0.1380E-13  0.1380E-13  0.1380E-13  0.1380E-13  0.1380E-13
  0.1000E+16  0.1670E-14  0.1640E-14  0.1530E-14  0.1400E-14  0.1380E-14  0.1390E-14  0.1390E-14  0.1390E-14  0.1380E-14  0.1380E-14  0.1380E-14  0.1380E-14  0.1380E-14  0.1380E-14
  0.1000E+17  0.1690E-15  0.1650E-15  0.1530E-15  0.1400E-15  0.1380E-15  0.1390E-15  0.1390E-15  0.1390E-15  0.1380E-15  0.1380E-15  0.1380E-15  0.1380E-15  0.1380E-15  0.1380E-15
WAVELENGTH(A)= 
  7345.920
 7 14 t 
excit   
     7.600     11.400     19.000     38.000     76.000    190.000    380.000    570.000    760.000   1140.000   1900.000   3800.000   7600.000  11400.000 
  0.1000E+11  0.4230E-13  0.6760E-13  0.9780E-13  0.2970E-12  0.2710E-11  0.1020E-10  0.1390E-10  0.1490E-10  0.1520E-10  0.1520E-10  0.1470E-10  0.1340E-10  0.1190E-10  0.1090E-10
  0.1000E+12  0.4480E-13  0.7180E-13  0.1040E-12  0.3140E-12  0.2290E-11  0.5230E-11  0.5910E-11  0.6040E-11  0.6070E-11  0.6060E-11  0.5990E-11  0.5810E-11  0.5540E-11  0.5340E-11
  0.1000E+13  0.5820E-13  0.9070E-13  0.1270E-12  0.3000E-12  0.6590E-12  0.6430E-12  0.6220E-12  0.6170E-12  0.6150E-12  0.6150E-12  0.6170E-12  0.6220E-12  0.6310E-12  0.6360E-12
  0.1000E+14  0.4110E-13  0.4980E-13  0.5400E-13  0.6030E-13  0.5990E-13  0.5630E-13  0.5530E-13  0.5500E-13  0.5480E-13  0.5470E-13  0.5470E-13  0.5470E-13  0.5480E-13  0.5500E-13
  0.1000E+15  0.6470E-14  0.6610E-14  0.6330E-14  0.5940E-14  0.5700E-14  0.5500E-14  0.5430E-14  0.5400E-14  0.5390E-14  0.5380E-14  0.5370E-14  0.5360E-14  0.5360E-14  0.5360E-14
  0.1000E+16  0.6790E-15  0.6780E-15  0.6390E-15  0.5910E-15  0.5670E-15  0.5490E-15  0.5420E-15  0.5390E-15  0.5380E-15  0.5370E-15  0.5360E-15  0.5350E-15  0.5340E-15  0.5340E-15
  0.1000E+17  0.6820E-16  0.6800E-16  0.6400E-16  0.5910E-16  0.5670E-16  0.5490E-16  0.5420E-16  0.5390E-16  0.5380E-16  0.5370E-16  0.5360E-16  0.5350E-16  0.5340E-16  0.5340E-16
WAVELENGTH(A)= 
  7699.410
 7 14 t 
excit   
     7.600     11.400     19.000     38.000     76.000    190.000    380.000    570.000    760.000   1140.000   1900.000   3800.000   7600.000  11400.000 
  0.1000E+11  0.2220E-13  0.3630E-13  0.5420E-13  0.3170E-12  0.3970E-11  0.1640E-10  0.2310E-10  0.2490E-10  0.2540E-10  0.2530E-10  0.2430E-10  0.2200E-10  0.1920E-10  0.1750E-10
  0.1000E+12  0.4720E-13  0.7570E-13  0.1120E-12  0.5040E-12  0.4260E-11  0.8580E-11  0.9160E-11  0.9230E-11  0.9240E-11  0.9240E-11  0.9190E-11  0.9050E-11  0.8810E-11  0.8600E-11
  0.1000E+13  0.1040E-12  0.1490E-12  0.1960E-12  0.4930E-12  0.9050E-12  0.7420E-12  0.6950E-12  0.6850E-12  0.6820E-12  0.6820E-12  0.6860E-12  0.6970E-12  0.7140E-12  0.7270E-12
  0.1000E+14  0.6130E-13  0.6680E-13  0.6690E-13  0.7060E-13  0.6470E-13  0.5880E-13  0.5730E-13  0.5700E-13  0.5680E-13  0.5660E-13  0.5660E-13  0.5660E-13  0.5680E-13  0.5690E-13
  0.1000E+15  0.8840E-14  0.8110E-14  0.7130E-14  0.6300E-14  0.5930E-14  0.5680E-14  0.5590E-14  0.5560E-14  0.5540E-14  0.5530E-14  0.5510E-14  0.5500E-14  0.5490E-14  0.5490E-14
  0.1000E+16  0.9160E-15  0.8220E-15  0.7110E-15  0.6180E-15  0.5870E-15  0.5660E-15  0.5570E-15  0.5540E-15  0.5530E-15  0.5510E-15  0.5500E-15  0.5490E-15  0.5470E-15  0.5470E-15
  0.1000E+17  0.9200E-16  0.8230E-16  0.7110E-16  0.6170E-16  0.5860E-16  0.5660E-16  0.5570E-16  0.5540E-16  0.5530E-16  0.5510E-16  0.5500E-16  0.5480E-16  0.5470E-16  0.5470E-16
WAVELENGTH(A)= 
  9470.590
 7 14 t 
excit   
     7.600     11.400     19.000     38.000     76.000    190.000    380.000    570.000    760.000   1140.000   1900.000   3800.000   7600.000  11400.000 
  0.1000E+11  0.3390E-12  0.4710E-12  0.6160E-12  0.1870E-11  0.1760E-10  0.6300E-10  0.8360E-10  0.8870E-10  0.9020E-10  0.9020E-10  0.8750E-10  0.8120E-10  0.7280E-10  0.6750E-10
  0.1000E+12  0.3450E-12  0.4790E-12  0.6250E-12  0.1850E-11  0.1170E-10  0.1800E-10  0.1760E-10  0.1740E-10  0.1740E-10  0.1740E-10  0.1750E-10  0.1780E-10  0.1810E-10  0.1820E-10
  0.1000E+13  0.2970E-12  0.3830E-12  0.4630E-12  0.9620E-12  0.1420E-11  0.9940E-12  0.9030E-12  0.8840E-12  0.8780E-12  0.8760E-12  0.8830E-12  0.9040E-12  0.9380E-12  0.9630E-12
  0.1000E+14  0.1110E-12  0.1100E-12  0.1010E-12  0.9820E-13  0.8300E-13  0.7230E-13  0.6990E-13  0.6920E-13  0.6890E-13  0.6860E-13  0.6850E-13  0.6850E-13  0.6880E-13  0.6910E-13
  0.1000E+15  0.1460E-13  0.1210E-13  0.9780E-14  0.8120E-14  0.7400E-14  0.6930E-14  0.6770E-14  0.6710E-14  0.6690E-14  0.6660E-14  0.6640E-14  0.6620E-14  0.6600E-14  0.6600E-14
  0.1000E+16  0.1500E-14  0.1210E-14  0.9650E-15  0.7910E-15  0.7310E-15  0.6900E-15  0.6750E-15  0.6690E-15  0.6670E-15  0.6640E-15  0.6610E-15  0.6590E-15  0.6580E-15  0.6570E-15
  0.1000E+17  0.1500E-15  0.1210E-15  0.9640E-16  0.7890E-16  0.7300E-16  0.6890E-16  0.6740E-16  0.6690E-16  0.6660E-16  0.6640E-16  0.6610E-16  0.6590E-16  0.6570E-16  0.6570E-16
