 50  7 14
WAVELENGTH(A)= 
    56.359
 7 14 t 
excit   
     9.930     14.900     24.800     49.600     99.300    248.000    496.000    744.000    993.000   1490.000   2480.000   4960.000   9930.000  14900.000 
  0.1000E+11  0.5130E-20  0.6760E-17  0.1930E-14  0.1170E-12  0.7990E-12  0.2240E-11  0.3050E-11  0.3360E-11  0.3510E-11  0.3630E-11  0.3660E-11  0.3500E-11  0.3190E-11  0.2970E-11
  0.1000E+12  0.5080E-20  0.6580E-17  0.1840E-14  0.1100E-12  0.7420E-12  0.2050E-11  0.2780E-11  0.3060E-11  0.3200E-11  0.3330E-11  0.3370E-11  0.3260E-11  0.3000E-11  0.2810E-11
  0.1000E+13  0.3410E-20  0.4000E-17  0.1030E-14  0.5690E-13  0.3550E-12  0.9070E-12  0.1210E-11  0.1350E-11  0.1420E-11  0.1510E-11  0.1570E-11  0.1610E-11  0.1580E-11  0.1540E-11
  0.1000E+14  0.1000E-20  0.9770E-18  0.2130E-15  0.1030E-13  0.5690E-13  0.1340E-12  0.1770E-12  0.1980E-12  0.2110E-12  0.2260E-12  0.2410E-12  0.2560E-12  0.2660E-12  0.2710E-12
  0.1000E+15  0.3490E-21  0.3030E-18  0.6010E-16  0.2710E-14  0.1580E-13  0.4120E-13  0.5570E-13  0.6160E-13  0.6480E-13  0.6780E-13  0.6940E-13  0.6840E-13  0.6460E-13  0.6170E-13
  0.1000E+16  0.2810E-21  0.2400E-18  0.4700E-16  0.2110E-14  0.1270E-13  0.3410E-13  0.4630E-13  0.5110E-13  0.5360E-13  0.5560E-13  0.5630E-13  0.5410E-13  0.4940E-13  0.4600E-13
  0.1000E+17  0.2740E-21  0.2340E-18  0.4570E-16  0.2050E-14  0.1240E-13  0.3340E-13  0.4540E-13  0.5010E-13  0.5250E-13  0.5450E-13  0.5500E-13  0.5270E-13  0.4800E-13  0.4450E-13
WAVELENGTH(A)= 
    56.547
 7 14 t 
excit   
     9.930     14.900     24.800     49.600     99.300    248.000    496.000    744.000    993.000   1490.000   2480.000   4960.000   9930.000  14900.000 
  0.1000E+11  0.4110E-20  0.5110E-17  0.1410E-14  0.8320E-13  0.5640E-12  0.1590E-11  0.2170E-11  0.2390E-11  0.2500E-11  0.2590E-11  0.2620E-11  0.2500E-11  0.2270E-11  0.2100E-11
  0.1000E+12  0.4070E-20  0.4980E-17  0.1350E-14  0.7830E-13  0.5240E-12  0.1460E-11  0.1990E-11  0.2200E-11  0.2320E-11  0.2420E-11  0.2460E-11  0.2390E-11  0.2200E-11  0.2050E-11
  0.1000E+13  0.2540E-20  0.2830E-17  0.7020E-15  0.3780E-13  0.2340E-12  0.6030E-12  0.8140E-12  0.9070E-12  0.9640E-12  0.1030E-11  0.1080E-11  0.1110E-11  0.1110E-11  0.1080E-11
  0.1000E+14  0.6710E-21  0.6300E-18  0.1340E-15  0.6310E-14  0.3490E-13  0.8200E-13  0.1090E-12  0.1220E-12  0.1300E-12  0.1400E-12  0.1500E-12  0.1610E-12  0.1680E-12  0.1710E-12
  0.1000E+15  0.2250E-21  0.1900E-18  0.3690E-16  0.1640E-14  0.9520E-14  0.2460E-13  0.3320E-13  0.3670E-13  0.3870E-13  0.4050E-13  0.4150E-13  0.4080E-13  0.3860E-13  0.3690E-13
  0.1000E+16  0.1800E-21  0.1500E-18  0.2880E-16  0.1270E-14  0.7590E-14  0.2030E-13  0.2750E-13  0.3030E-13  0.3180E-13  0.3300E-13  0.3330E-13  0.3200E-13  0.2920E-13  0.2720E-13
  0.1000E+17  0.1760E-21  0.1460E-18  0.2800E-16  0.1240E-14  0.7410E-14  0.1990E-13  0.2690E-13  0.2970E-13  0.3110E-13  0.3230E-13  0.3260E-13  0.3120E-13  0.2830E-13  0.2620E-13
WAVELENGTH(A)= 
    56.704
 7 14 t 
excit   
     9.930     14.900     24.800     49.600     99.300    248.000    496.000    744.000    993.000   1490.000   2480.000   4960.000   9930.000  14900.000 
  0.1000E+11  0.4020E-20  0.5070E-17  0.1400E-14  0.8270E-13  0.5560E-12  0.1550E-11  0.2100E-11  0.2300E-11  0.2410E-11  0.2490E-11  0.2510E-11  0.2400E-11  0.2180E-11  0.2020E-11
  0.1000E+12  0.3920E-20  0.4870E-17  0.1320E-14  0.7680E-13  0.5070E-12  0.1380E-11  0.1860E-11  0.2040E-11  0.2130E-11  0.2210E-11  0.2240E-11  0.2170E-11  0.1990E-11  0.1860E-11
  0.1000E+13  0.2590E-20  0.2930E-17  0.7300E-15  0.3930E-13  0.2410E-12  0.6090E-12  0.8100E-12  0.8940E-12  0.9420E-12  0.9930E-12  0.1030E-11  0.1050E-11  0.1020E-11  0.9950E-12
  0.1000E+14  0.8460E-21  0.7970E-18  0.1690E-15  0.7980E-14  0.4450E-13  0.1060E-12  0.1410E-12  0.1570E-12  0.1670E-12  0.1790E-12  0.1900E-12  0.1990E-12  0.2040E-12  0.2050E-12
  0.1000E+15  0.3450E-21  0.2870E-18  0.5500E-16  0.2420E-14  0.1400E-13  0.3630E-13  0.4900E-13  0.5410E-13  0.5680E-13  0.5930E-13  0.6070E-13  0.5950E-13  0.5600E-13  0.5330E-13
  0.1000E+16  0.2880E-21  0.2360E-18  0.4450E-16  0.1940E-14  0.1150E-13  0.3060E-13  0.4140E-13  0.4560E-13  0.4770E-13  0.4940E-13  0.5000E-13  0.4790E-13  0.4370E-13  0.4060E-13
  0.1000E+17  0.2830E-21  0.2310E-18  0.4350E-16  0.1900E-14  0.1120E-13  0.3000E-13  0.4060E-13  0.4470E-13  0.4680E-13  0.4850E-13  0.4890E-13  0.4680E-13  0.4250E-13  0.3940E-13
WAVELENGTH(A)= 
    57.009
 7 14 t 
excit   
     9.930     14.900     24.800     49.600     99.300    248.000    496.000    744.000    993.000   1490.000   2480.000   4960.000   9930.000  14900.000 
  0.1000E+11  0.2150E-20  0.2710E-17  0.7500E-15  0.4420E-13  0.2970E-12  0.8260E-12  0.1120E-11  0.1230E-11  0.1290E-11  0.1330E-11  0.1340E-11  0.1280E-11  0.1160E-11  0.1080E-11
  0.1000E+12  0.2100E-20  0.2600E-17  0.7080E-15  0.4100E-13  0.2710E-12  0.7360E-12  0.9920E-12  0.1090E-11  0.1140E-11  0.1180E-11  0.1200E-11  0.1160E-11  0.1070E-11  0.9960E-12
  0.1000E+13  0.1380E-20  0.1560E-17  0.3900E-15  0.2100E-13  0.1290E-12  0.3250E-12  0.4330E-12  0.4780E-12  0.5030E-12  0.5300E-12  0.5520E-12  0.5590E-12  0.5460E-12  0.5310E-12
  0.1000E+14  0.4520E-21  0.4260E-18  0.9040E-16  0.4260E-14  0.2380E-13  0.5670E-13  0.7540E-13  0.8400E-13  0.8920E-13  0.9540E-13  0.1010E-12  0.1060E-12  0.1090E-12  0.1100E-12
  0.1000E+15  0.1850E-21  0.1540E-18  0.2940E-16  0.1290E-14  0.7480E-14  0.1940E-13  0.2620E-13  0.2890E-13  0.3040E-13  0.3170E-13  0.3240E-13  0.3180E-13  0.2990E-13  0.2850E-13
  0.1000E+16  0.1540E-21  0.1260E-18  0.2380E-16  0.1040E-14  0.6140E-14  0.1630E-13  0.2210E-13  0.2430E-13  0.2550E-13  0.2640E-13  0.2670E-13  0.2560E-13  0.2330E-13  0.2170E-13
  0.1000E+17  0.1510E-21  0.1230E-18  0.2320E-16  0.1010E-14  0.6010E-14  0.1600E-13  0.2170E-13  0.2390E-13  0.2500E-13  0.2590E-13  0.2610E-13  0.2500E-13  0.2270E-13  0.2110E-13
WAVELENGTH(A)= 
    57.020
 7 14 t 
excit   
     9.930     14.900     24.800     49.600     99.300    248.000    496.000    744.000    993.000   1490.000   2480.000   4960.000   9930.000  14900.000 
  0.1000E+11  0.4680E-19  0.5600E-16  0.1490E-13  0.8540E-12  0.5670E-11  0.1560E-10  0.2110E-10  0.2320E-10  0.2420E-10  0.2510E-10  0.2530E-10  0.2410E-10  0.2200E-10  0.2040E-10
  0.1000E+12  0.4240E-19  0.4980E-16  0.1300E-13  0.7300E-12  0.4720E-11  0.1260E-10  0.1680E-10  0.1850E-10  0.1940E-10  0.2020E-10  0.2050E-10  0.2000E-10  0.1860E-10  0.1750E-10
  0.1000E+13  0.2160E-19  0.2300E-16  0.5440E-14  0.2810E-12  0.1660E-11  0.3990E-11  0.5240E-11  0.5790E-11  0.6100E-11  0.6480E-11  0.6810E-11  0.7040E-11  0.7080E-11  0.7000E-11
  0.1000E+14  0.4330E-20  0.3860E-17  0.7850E-15  0.3570E-13  0.1900E-12  0.4300E-12  0.5630E-12  0.6270E-12  0.6660E-12  0.7160E-12  0.7660E-12  0.8190E-12  0.8620E-12  0.8820E-12
  0.1000E+15  0.1240E-20  0.9920E-18  0.1840E-15  0.7890E-14  0.4490E-13  0.1150E-12  0.1550E-12  0.1710E-12  0.1800E-12  0.1880E-12  0.1930E-12  0.1900E-12  0.1800E-12  0.1720E-12
  0.1000E+16  0.9580E-21  0.7530E-18  0.1380E-15  0.5870E-14  0.3460E-13  0.9270E-13  0.1250E-12  0.1380E-12  0.1450E-12  0.1510E-12  0.1520E-12  0.1460E-12  0.1340E-12  0.1240E-12
  0.1000E+17  0.9310E-21  0.7300E-18  0.1330E-15  0.5680E-14  0.3370E-13  0.9050E-13  0.1230E-12  0.1350E-12  0.1420E-12  0.1470E-12  0.1480E-12  0.1420E-12  0.1290E-12  0.1200E-12
WAVELENGTH(A)= 
    57.122
 7 14 t 
excit   
     9.930     14.900     24.800     49.600     99.300    248.000    496.000    744.000    993.000   1490.000   2480.000   4960.000   9930.000  14900.000 
  0.1000E+11  0.4570E-20  0.6020E-17  0.1710E-14  0.1040E-12  0.7110E-12  0.1990E-11  0.2720E-11  0.2990E-11  0.3120E-11  0.3230E-11  0.3260E-11  0.3120E-11  0.2840E-11  0.2640E-11
  0.1000E+12  0.4520E-20  0.5850E-17  0.1640E-14  0.9830E-13  0.6600E-12  0.1820E-11  0.2470E-11  0.2720E-11  0.2850E-11  0.2960E-11  0.3000E-11  0.2900E-11  0.2670E-11  0.2500E-11
  0.1000E+13  0.3030E-20  0.3560E-17  0.9140E-15  0.5070E-13  0.3160E-12  0.8070E-12  0.1080E-11  0.1200E-11  0.1270E-11  0.1340E-11  0.1400E-11  0.1430E-11  0.1410E-11  0.1370E-11
  0.1000E+14  0.8910E-21  0.8700E-18  0.1900E-15  0.9130E-14  0.5060E-13  0.1190E-12  0.1580E-12  0.1760E-12  0.1870E-12  0.2010E-12  0.2150E-12  0.2280E-12  0.2370E-12  0.2410E-12
  0.1000E+15  0.3110E-21  0.2700E-18  0.5350E-16  0.2410E-14  0.1410E-13  0.3670E-13  0.4960E-13  0.5490E-13  0.5770E-13  0.6030E-13  0.6180E-13  0.6090E-13  0.5750E-13  0.5490E-13
  0.1000E+16  0.2500E-21  0.2140E-18  0.4180E-16  0.1880E-14  0.1130E-13  0.3040E-13  0.4120E-13  0.4550E-13  0.4770E-13  0.4950E-13  0.5010E-13  0.4810E-13  0.4400E-13  0.4090E-13
  0.1000E+17  0.2440E-21  0.2090E-18  0.4070E-16  0.1830E-14  0.1100E-13  0.2980E-13  0.4040E-13  0.4460E-13  0.4670E-13  0.4850E-13  0.4900E-13  0.4690E-13  0.4270E-13  0.3960E-13
WAVELENGTH(A)= 
    57.130
 7 14 t 
excit   
     9.930     14.900     24.800     49.600     99.300    248.000    496.000    744.000    993.000   1490.000   2480.000   4960.000   9930.000  14900.000 
  0.1000E+11  0.5990E-20  0.7890E-17  0.2250E-14  0.1370E-12  0.9330E-12  0.2620E-11  0.3560E-11  0.3920E-11  0.4090E-11  0.4240E-11  0.4270E-11  0.4090E-11  0.3720E-11  0.3470E-11
  0.1000E+12  0.5930E-20  0.7680E-17  0.2150E-14  0.1290E-12  0.8660E-12  0.2390E-11  0.3240E-11  0.3570E-11  0.3740E-11  0.3890E-11  0.3940E-11  0.3810E-11  0.3500E-11  0.3280E-11
  0.1000E+13  0.3980E-20  0.4670E-17  0.1200E-14  0.6650E-13  0.4140E-12  0.1060E-11  0.1420E-11  0.1570E-11  0.1660E-11  0.1760E-11  0.1840E-11  0.1880E-11  0.1840E-11  0.1800E-11
  0.1000E+14  0.1170E-20  0.1140E-17  0.2490E-15  0.1200E-13  0.6640E-13  0.1560E-12  0.2070E-12  0.2310E-12  0.2460E-12  0.2640E-12  0.2820E-12  0.2990E-12  0.3110E-12  0.3160E-12
  0.1000E+15  0.4080E-21  0.3540E-18  0.7020E-16  0.3170E-14  0.1850E-13  0.4820E-13  0.6500E-13  0.7200E-13  0.7570E-13  0.7920E-13  0.8110E-13  0.7980E-13  0.7540E-13  0.7200E-13
  0.1000E+16  0.3280E-21  0.2810E-18  0.5490E-16  0.2460E-14  0.1480E-13  0.3980E-13  0.5410E-13  0.5970E-13  0.6250E-13  0.6490E-13  0.6570E-13  0.6310E-13  0.5770E-13  0.5370E-13
  0.1000E+17  0.3200E-21  0.2740E-18  0.5340E-16  0.2400E-14  0.1440E-13  0.3910E-13  0.5300E-13  0.5850E-13  0.6130E-13  0.6360E-13  0.6420E-13  0.6150E-13  0.5600E-13  0.5200E-13
WAVELENGTH(A)= 
    57.145
 7 14 t 
excit   
     9.930     14.900     24.800     49.600     99.300    248.000    496.000    744.000    993.000   1490.000   2480.000   4960.000   9930.000  14900.000 
  0.1000E+11  0.3020E-20  0.3730E-17  0.1030E-14  0.6100E-13  0.4170E-12  0.1190E-11  0.1640E-11  0.1820E-11  0.1910E-11  0.1980E-11  0.1990E-11  0.1900E-11  0.1720E-11  0.1590E-11
  0.1000E+12  0.3240E-20  0.3970E-17  0.1080E-14  0.6340E-13  0.4310E-12  0.1240E-11  0.1720E-11  0.1910E-11  0.2020E-11  0.2110E-11  0.2150E-11  0.2080E-11  0.1900E-11  0.1770E-11
  0.1000E+13  0.2260E-20  0.2540E-17  0.6360E-15  0.3470E-13  0.2190E-12  0.5820E-12  0.7980E-12  0.8960E-12  0.9540E-12  0.1020E-11  0.1080E-11  0.1110E-11  0.1100E-11  0.1080E-11
  0.1000E+14  0.6410E-21  0.6120E-18  0.1320E-15  0.6270E-14  0.3490E-13  0.8340E-13  0.1120E-12  0.1250E-12  0.1340E-12  0.1440E-12  0.1550E-12  0.1660E-12  0.1730E-12  0.1770E-12
  0.1000E+15  0.2230E-21  0.1930E-18  0.3800E-16  0.1710E-14  0.9950E-14  0.2590E-13  0.3490E-13  0.3860E-13  0.4060E-13  0.4250E-13  0.4350E-13  0.4290E-13  0.4050E-13  0.3870E-13
  0.1000E+16  0.1810E-21  0.1540E-18  0.3000E-16  0.1340E-14  0.8030E-14  0.2150E-13  0.2910E-13  0.3210E-13  0.3360E-13  0.3480E-13  0.3520E-13  0.3380E-13  0.3080E-13  0.2870E-13
  0.1000E+17  0.1770E-21  0.1500E-18  0.2930E-16  0.1310E-14  0.7850E-14  0.2110E-13  0.2860E-13  0.3140E-13  0.3290E-13  0.3410E-13  0.3440E-13  0.3300E-13  0.2990E-13  0.2780E-13
WAVELENGTH(A)= 
    57.171
 7 14 t 
excit   
     9.930     14.900     24.800     49.600     99.300    248.000    496.000    744.000    993.000   1490.000   2480.000   4960.000   9930.000  14900.000 
  0.1000E+11  0.5940E-20  0.7350E-17  0.2030E-14  0.1200E-12  0.8210E-12  0.2350E-11  0.3240E-11  0.3580E-11  0.3750E-11  0.3900E-11  0.3930E-11  0.3740E-11  0.3380E-11  0.3120E-11
  0.1000E+12  0.6380E-20  0.7810E-17  0.2130E-14  0.1250E-12  0.8490E-12  0.2430E-11  0.3380E-11  0.3760E-11  0.3970E-11  0.4150E-11  0.4230E-11  0.4090E-11  0.3750E-11  0.3490E-11
  0.1000E+13  0.4440E-20  0.5000E-17  0.1250E-14  0.6820E-13  0.4310E-12  0.1140E-11  0.1570E-11  0.1760E-11  0.1880E-11  0.2010E-11  0.2120E-11  0.2190E-11  0.2170E-11  0.2120E-11
  0.1000E+14  0.1260E-20  0.1200E-17  0.2590E-15  0.1230E-13  0.6880E-13  0.1640E-12  0.2200E-12  0.2470E-12  0.2630E-12  0.2830E-12  0.3050E-12  0.3260E-12  0.3410E-12  0.3490E-12
  0.1000E+15  0.4400E-21  0.3790E-18  0.7480E-16  0.3360E-14  0.1960E-13  0.5090E-13  0.6880E-13  0.7600E-13  0.8000E-13  0.8360E-13  0.8570E-13  0.8440E-13  0.7970E-13  0.7620E-13
  0.1000E+16  0.3560E-21  0.3030E-18  0.5910E-16  0.2650E-14  0.1580E-13  0.4230E-13  0.5730E-13  0.6310E-13  0.6610E-13  0.6860E-13  0.6930E-13  0.6660E-13  0.6070E-13  0.5660E-13
  0.1000E+17  0.3480E-21  0.2960E-18  0.5760E-16  0.2580E-14  0.1550E-13  0.4150E-13  0.5620E-13  0.6190E-13  0.6480E-13  0.6710E-13  0.6780E-13  0.6490E-13  0.5890E-13  0.5470E-13
WAVELENGTH(A)= 
    57.195
 7 14 t 
excit   
     9.930     14.900     24.800     49.600     99.300    248.000    496.000    744.000    993.000   1490.000   2480.000   4960.000   9930.000  14900.000 
  0.1000E+11  0.2720E-20  0.3360E-17  0.9130E-15  0.5330E-13  0.3580E-12  0.9970E-12  0.1350E-11  0.1480E-11  0.1550E-11  0.1590E-11  0.1600E-11  0.1520E-11  0.1380E-11  0.1280E-11
  0.1000E+12  0.3150E-20  0.3920E-17  0.1070E-14  0.6330E-13  0.4300E-12  0.1210E-11  0.1640E-11  0.1790E-11  0.1860E-11  0.1910E-11  0.1900E-11  0.1780E-11  0.1580E-11  0.1450E-11
  0.1000E+13  0.4440E-20  0.5150E-17  0.1320E-14  0.7240E-13  0.4530E-12  0.1150E-11  0.1510E-11  0.1650E-11  0.1730E-11  0.1790E-11  0.1830E-11  0.1790E-11  0.1690E-11  0.1590E-11
  0.1000E+14  0.1990E-20  0.1870E-17  0.3930E-15  0.1830E-13  0.9840E-13  0.2220E-12  0.2890E-12  0.3180E-12  0.3370E-12  0.3570E-12  0.3770E-12  0.3940E-12  0.4040E-12  0.4050E-12
  0.1000E+15  0.7120E-21  0.5820E-18  0.1100E-15  0.4750E-14  0.2720E-13  0.6940E-13  0.9290E-13  0.1020E-12  0.1080E-12  0.1120E-12  0.1140E-12  0.1120E-12  0.1050E-12  0.1000E-12
  0.1000E+16  0.5670E-21  0.4540E-18  0.8400E-16  0.3620E-14  0.2140E-13  0.5720E-13  0.7730E-13  0.8500E-13  0.8910E-13  0.9220E-13  0.9320E-13  0.8910E-13  0.8150E-13  0.7560E-13
  0.1000E+17  0.5520E-21  0.4410E-18  0.8150E-16  0.3510E-14  0.2090E-13  0.5600E-13  0.7580E-13  0.8330E-13  0.8730E-13  0.9030E-13  0.9110E-13  0.8690E-13  0.7920E-13  0.7320E-13
WAVELENGTH(A)= 
    57.286
 7 14 t 
excit   
     9.930     14.900     24.800     49.600     99.300    248.000    496.000    744.000    993.000   1490.000   2480.000   4960.000   9930.000  14900.000 
  0.1000E+11  0.2890E-20  0.3530E-17  0.9530E-15  0.5540E-13  0.3750E-12  0.1060E-11  0.1440E-11  0.1590E-11  0.1650E-11  0.1700E-11  0.1700E-11  0.1610E-11  0.1440E-11  0.1320E-11
  0.1000E+12  0.4210E-20  0.5140E-17  0.1390E-14  0.8110E-13  0.5580E-12  0.1610E-11  0.2210E-11  0.2440E-11  0.2540E-11  0.2610E-11  0.2600E-11  0.2430E-11  0.2140E-11  0.1940E-11
  0.1000E+13  0.5800E-20  0.6490E-17  0.1610E-14  0.8740E-13  0.5500E-12  0.1430E-11  0.1910E-11  0.2110E-11  0.2210E-11  0.2320E-11  0.2390E-11  0.2380E-11  0.2260E-11  0.2150E-11
  0.1000E+14  0.2410E-20  0.2200E-17  0.4540E-15  0.2090E-13  0.1130E-12  0.2580E-12  0.3380E-12  0.3740E-12  0.3970E-12  0.4240E-12  0.4510E-12  0.4750E-12  0.4890E-12  0.4950E-12
  0.1000E+15  0.8320E-21  0.6680E-18  0.1240E-15  0.5360E-14  0.3050E-13  0.7800E-13  0.1050E-12  0.1150E-12  0.1210E-12  0.1260E-12  0.1300E-12  0.1270E-12  0.1200E-12  0.1140E-12
  0.1000E+16  0.6570E-21  0.5190E-18  0.9510E-16  0.4070E-14  0.2400E-13  0.6390E-13  0.8640E-13  0.9520E-13  0.9970E-13  0.1030E-12  0.1040E-12  0.1000E-12  0.9120E-13  0.8480E-13
  0.1000E+17  0.6400E-21  0.5040E-18  0.9220E-16  0.3950E-14  0.2340E-13  0.6260E-13  0.8470E-13  0.9320E-13  0.9760E-13  0.1010E-12  0.1020E-12  0.9750E-13  0.8850E-13  0.8200E-13
WAVELENGTH(A)= 
    57.311
 7 14 t 
excit   
     9.930     14.900     24.800     49.600     99.300    248.000    496.000    744.000    993.000   1490.000   2480.000   4960.000   9930.000  14900.000 
  0.1000E+11  0.6170E-19  0.7180E-16  0.1860E-13  0.1050E-11  0.6880E-11  0.1880E-10  0.2530E-10  0.2770E-10  0.2890E-10  0.2990E-10  0.3010E-10  0.2870E-10  0.2620E-10  0.2430E-10
  0.1000E+12  0.5480E-19  0.6250E-16  0.1590E-13  0.8750E-12  0.5580E-11  0.1460E-10  0.1940E-10  0.2130E-10  0.2220E-10  0.2310E-10  0.2350E-10  0.2280E-10  0.2130E-10  0.2000E-10
  0.1000E+13  0.2690E-19  0.2780E-16  0.6410E-14  0.3250E-12  0.1870E-11  0.4390E-11  0.5680E-11  0.6240E-11  0.6560E-11  0.6920E-11  0.7260E-11  0.7490E-11  0.7530E-11  0.7460E-11
  0.1000E+14  0.5110E-20  0.4430E-17  0.8770E-15  0.3910E-13  0.2040E-12  0.4530E-12  0.5880E-12  0.6520E-12  0.6900E-12  0.7380E-12  0.7880E-12  0.8390E-12  0.8800E-12  0.8980E-12
  0.1000E+15  0.1420E-20  0.1100E-17  0.1980E-15  0.8300E-14  0.4680E-13  0.1190E-12  0.1600E-12  0.1760E-12  0.1850E-12  0.1930E-12  0.1980E-12  0.1950E-12  0.1840E-12  0.1760E-12
  0.1000E+16  0.1090E-20  0.8230E-18  0.1460E-15  0.6100E-14  0.3580E-13  0.9530E-13  0.1290E-12  0.1420E-12  0.1490E-12  0.1540E-12  0.1560E-12  0.1500E-12  0.1370E-12  0.1270E-12
  0.1000E+17  0.1060E-20  0.7970E-18  0.1410E-15  0.5890E-14  0.3470E-13  0.9300E-13  0.1260E-12  0.1390E-12  0.1450E-12  0.1510E-12  0.1520E-12  0.1450E-12  0.1320E-12  0.1220E-12
WAVELENGTH(A)= 
    57.315
 7 14 t 
excit   
     9.930     14.900     24.800     49.600     99.300    248.000    496.000    744.000    993.000   1490.000   2480.000   4960.000   9930.000  14900.000 
  0.1000E+11  0.5080E-20  0.6300E-17  0.1740E-14  0.1030E-12  0.6960E-12  0.1960E-11  0.2680E-11  0.2950E-11  0.3090E-11  0.3200E-11  0.3230E-11  0.3080E-11  0.2800E-11  0.2580E-11
  0.1000E+12  0.5030E-20  0.6140E-17  0.1660E-14  0.9660E-13  0.6470E-12  0.1800E-11  0.2460E-11  0.2720E-11  0.2860E-11  0.2980E-11  0.3040E-11  0.2950E-11  0.2720E-11  0.2530E-11
  0.1000E+13  0.3130E-20  0.3490E-17  0.8650E-15  0.4660E-13  0.2890E-12  0.7430E-12  0.1000E-11  0.1120E-11  0.1190E-11  0.1270E-11  0.1330E-11  0.1370E-11  0.1360E-11  0.1340E-11
  0.1000E+14  0.8270E-21  0.7770E-18  0.1650E-15  0.7780E-14  0.4300E-13  0.1010E-12  0.1350E-12  0.1510E-12  0.1610E-12  0.1730E-12  0.1860E-12  0.1980E-12  0.2070E-12  0.2110E-12
  0.1000E+15  0.2780E-21  0.2340E-18  0.4550E-16  0.2020E-14  0.1170E-13  0.3040E-13  0.4100E-13  0.4530E-13  0.4770E-13  0.4990E-13  0.5120E-13  0.5040E-13  0.4770E-13  0.4550E-13
  0.1000E+16  0.2220E-21  0.1850E-18  0.3550E-16  0.1570E-14  0.9370E-14  0.2500E-13  0.3390E-13  0.3740E-13  0.3920E-13  0.4070E-13  0.4110E-13  0.3950E-13  0.3610E-13  0.3350E-13
  0.1000E+17  0.2170E-21  0.1800E-18  0.3460E-16  0.1530E-14  0.9140E-14  0.2450E-13  0.3320E-13  0.3660E-13  0.3840E-13  0.3980E-13  0.4020E-13  0.3840E-13  0.3500E-13  0.3240E-13
WAVELENGTH(A)= 
    57.341
 7 14 t 
excit   
     9.930     14.900     24.800     49.600     99.300    248.000    496.000    744.000    993.000   1490.000   2480.000   4960.000   9930.000  14900.000 
  0.1000E+11  0.9570E-20  0.1190E-16  0.3270E-14  0.1930E-12  0.1310E-11  0.3700E-11  0.5040E-11  0.5550E-11  0.5820E-11  0.6030E-11  0.6080E-11  0.5810E-11  0.5270E-11  0.4870E-11
  0.1000E+12  0.9470E-20  0.1160E-16  0.3130E-14  0.1820E-12  0.1220E-11  0.3390E-11  0.4630E-11  0.5120E-11  0.5390E-11  0.5620E-11  0.5730E-11  0.5550E-11  0.5120E-11  0.4780E-11
  0.1000E+13  0.5910E-20  0.6580E-17  0.1630E-14  0.8780E-13  0.5450E-12  0.1400E-11  0.1890E-11  0.2110E-11  0.2240E-11  0.2390E-11  0.2510E-11  0.2590E-11  0.2570E-11  0.2520E-11
  0.1000E+14  0.1560E-20  0.1470E-17  0.3110E-15  0.1470E-13  0.8110E-13  0.1910E-12  0.2540E-12  0.2840E-12  0.3030E-12  0.3260E-12  0.3500E-12  0.3740E-12  0.3910E-12  0.3980E-12
  0.1000E+15  0.5240E-21  0.4420E-18  0.8580E-16  0.3810E-14  0.2210E-13  0.5730E-13  0.7730E-13  0.8540E-13  0.8990E-13  0.9410E-13  0.9640E-13  0.9490E-13  0.8990E-13  0.8570E-13
  0.1000E+16  0.4190E-21  0.3490E-18  0.6700E-16  0.2960E-14  0.1770E-13  0.4720E-13  0.6390E-13  0.7040E-13  0.7390E-13  0.7670E-13  0.7750E-13  0.7440E-13  0.6800E-13  0.6310E-13
  0.1000E+17  0.4090E-21  0.3400E-18  0.6520E-16  0.2870E-14  0.1720E-13  0.4620E-13  0.6270E-13  0.6900E-13  0.7230E-13  0.7500E-13  0.7570E-13  0.7250E-13  0.6590E-13  0.6100E-13
WAVELENGTH(A)= 
    57.477
 7 14 t 
excit   
     9.930     14.900     24.800     49.600     99.300    248.000    496.000    744.000    993.000   1490.000   2480.000   4960.000   9930.000  14900.000 
  0.1000E+11  0.2720E-20  0.3430E-17  0.9490E-15  0.5590E-13  0.3750E-12  0.1040E-11  0.1420E-11  0.1560E-11  0.1630E-11  0.1680E-11  0.1690E-11  0.1620E-11  0.1470E-11  0.1370E-11
  0.1000E+12  0.2650E-20  0.3290E-17  0.8950E-15  0.5190E-13  0.3430E-12  0.9320E-12  0.1250E-11  0.1380E-11  0.1440E-11  0.1490E-11  0.1520E-11  0.1460E-11  0.1350E-11  0.1260E-11
  0.1000E+13  0.1750E-20  0.1980E-17  0.4930E-15  0.2660E-13  0.1630E-12  0.4110E-12  0.5470E-12  0.6040E-12  0.6370E-12  0.6710E-12  0.6980E-12  0.7080E-12  0.6910E-12  0.6720E-12
  0.1000E+14  0.5710E-21  0.5390E-18  0.1140E-15  0.5390E-14  0.3010E-13  0.7170E-13  0.9540E-13  0.1060E-12  0.1130E-12  0.1210E-12  0.1280E-12  0.1350E-12  0.1380E-12  0.1390E-12
  0.1000E+15  0.2330E-21  0.1940E-18  0.3720E-16  0.1630E-14  0.9460E-14  0.2460E-13  0.3310E-13  0.3660E-13  0.3840E-13  0.4010E-13  0.4100E-13  0.4020E-13  0.3790E-13  0.3600E-13
  0.1000E+16  0.1950E-21  0.1600E-18  0.3010E-16  0.1310E-14  0.7760E-14  0.2070E-13  0.2800E-13  0.3080E-13  0.3220E-13  0.3340E-13  0.3380E-13  0.3240E-13  0.2950E-13  0.2740E-13
  0.1000E+17  0.1910E-21  0.1560E-18  0.2940E-16  0.1280E-14  0.7600E-14  0.2030E-13  0.2750E-13  0.3020E-13  0.3160E-13  0.3280E-13  0.3310E-13  0.3160E-13  0.2870E-13  0.2660E-13
WAVELENGTH(A)= 
    57.591
 7 14 t 
excit   
     9.930     14.900     24.800     49.600     99.300    248.000    496.000    744.000    993.000   1490.000   2480.000   4960.000   9930.000  14900.000 
  0.1000E+11  0.2780E-20  0.3270E-17  0.8620E-15  0.4970E-13  0.3370E-12  0.9620E-12  0.1330E-11  0.1470E-11  0.1530E-11  0.1590E-11  0.1590E-11  0.1510E-11  0.1350E-11  0.1240E-11
  0.1000E+12  0.3590E-20  0.4220E-17  0.1110E-14  0.6350E-13  0.4330E-12  0.1250E-11  0.1730E-11  0.1930E-11  0.2020E-11  0.2100E-11  0.2130E-11  0.2030E-11  0.1840E-11  0.1690E-11
  0.1000E+13  0.3040E-20  0.3270E-17  0.7860E-15  0.4170E-13  0.2620E-12  0.6880E-12  0.9420E-12  0.1050E-11  0.1120E-11  0.1190E-11  0.1260E-11  0.1290E-11  0.1270E-11  0.1230E-11
  0.1000E+14  0.9250E-21  0.8390E-18  0.1720E-15  0.7960E-14  0.4390E-13  0.1030E-12  0.1380E-12  0.1550E-12  0.1650E-12  0.1780E-12  0.1910E-12  0.2040E-12  0.2130E-12  0.2170E-12
  0.1000E+15  0.3240E-21  0.2650E-18  0.4980E-16  0.2160E-14  0.1240E-13  0.3200E-13  0.4320E-13  0.4770E-13  0.5010E-13  0.5230E-13  0.5370E-13  0.5280E-13  0.4990E-13  0.4760E-13
  0.1000E+16  0.2620E-21  0.2110E-18  0.3930E-16  0.1700E-14  0.1000E-13  0.2650E-13  0.3590E-13  0.3950E-13  0.4140E-13  0.4290E-13  0.4330E-13  0.4160E-13  0.3790E-13  0.3530E-13
  0.1000E+17  0.2560E-21  0.2060E-18  0.3830E-16  0.1650E-14  0.9790E-14  0.2600E-13  0.3520E-13  0.3870E-13  0.4050E-13  0.4190E-13  0.4240E-13  0.4050E-13  0.3680E-13  0.3410E-13
WAVELENGTH(A)= 
    57.623
 7 14 t 
excit   
     9.930     14.900     24.800     49.600     99.300    248.000    496.000    744.000    993.000   1490.000   2480.000   4960.000   9930.000  14900.000 
  0.1000E+11  0.3890E-20  0.4520E-17  0.1170E-14  0.6600E-13  0.4330E-12  0.1180E-11  0.1590E-11  0.1750E-11  0.1820E-11  0.1880E-11  0.1900E-11  0.1810E-11  0.1650E-11  0.1530E-11
  0.1000E+12  0.3450E-20  0.3940E-17  0.1000E-14  0.5520E-13  0.3520E-12  0.9220E-12  0.1230E-11  0.1340E-11  0.1400E-11  0.1450E-11  0.1480E-11  0.1440E-11  0.1340E-11  0.1260E-11
  0.1000E+13  0.1700E-20  0.1750E-17  0.4040E-15  0.2050E-13  0.1180E-12  0.2770E-12  0.3580E-12  0.3930E-12  0.4130E-12  0.4360E-12  0.4570E-12  0.4720E-12  0.4750E-12  0.4700E-12
  0.1000E+14  0.3220E-21  0.2790E-18  0.5520E-16  0.2460E-14  0.1290E-13  0.2850E-13  0.3700E-13  0.4110E-13  0.4350E-13  0.4650E-13  0.4970E-13  0.5280E-13  0.5540E-13  0.5660E-13
  0.1000E+15  0.8980E-22  0.6910E-19  0.1250E-16  0.5230E-15  0.2950E-14  0.7500E-14  0.1010E-13  0.1110E-13  0.1170E-13  0.1220E-13  0.1250E-13  0.1230E-13  0.1160E-13  0.1110E-13
  0.1000E+16  0.6850E-22  0.5190E-19  0.9200E-17  0.3840E-15  0.2250E-14  0.6000E-14  0.8130E-14  0.8970E-14  0.9380E-14  0.9730E-14  0.9840E-14  0.9430E-14  0.8610E-14  0.8000E-14
  0.1000E+17  0.6650E-22  0.5020E-19  0.8890E-17  0.3710E-15  0.2190E-14  0.5860E-14  0.7940E-14  0.8760E-14  0.9170E-14  0.9490E-14  0.9590E-14  0.9160E-14  0.8330E-14  0.7710E-14
WAVELENGTH(A)= 
    57.801
 7 14 t 
excit   
     9.930     14.900     24.800     49.600     99.300    248.000    496.000    744.000    993.000   1490.000   2480.000   4960.000   9930.000  14900.000 
  0.1000E+11  0.6150E-20  0.7370E-17  0.1960E-14  0.1120E-12  0.7450E-12  0.2060E-11  0.2780E-11  0.3050E-11  0.3190E-11  0.3300E-11  0.3330E-11  0.3180E-11  0.2900E-11  0.2680E-11
  0.1000E+12  0.5580E-20  0.6550E-17  0.1710E-14  0.9600E-13  0.6210E-12  0.1660E-11  0.2210E-11  0.2440E-11  0.2550E-11  0.2660E-11  0.2700E-11  0.2630E-11  0.2450E-11  0.2300E-11
  0.1000E+13  0.2850E-20  0.3020E-17  0.7160E-15  0.3700E-13  0.2180E-12  0.5250E-12  0.6890E-12  0.7610E-12  0.8030E-12  0.8530E-12  0.8960E-12  0.9260E-12  0.9310E-12  0.9210E-12
  0.1000E+14  0.5690E-21  0.5080E-18  0.1030E-15  0.4690E-14  0.2500E-13  0.5650E-13  0.7410E-13  0.8250E-13  0.8760E-13  0.9420E-13  0.1010E-12  0.1080E-12  0.1130E-12  0.1160E-12
  0.1000E+15  0.1640E-21  0.1310E-18  0.2420E-16  0.1040E-14  0.5910E-14  0.1510E-13  0.2040E-13  0.2250E-13  0.2360E-13  0.2480E-13  0.2540E-13  0.2500E-13  0.2370E-13  0.2270E-13
  0.1000E+16  0.1260E-21  0.9900E-19  0.1810E-16  0.7720E-15  0.4560E-14  0.1220E-13  0.1650E-13  0.1820E-13  0.1910E-13  0.1980E-13  0.2000E-13  0.1920E-13  0.1760E-13  0.1630E-13
  0.1000E+17  0.1220E-21  0.9600E-19  0.1750E-16  0.7470E-15  0.4430E-14  0.1190E-13  0.1610E-13  0.1780E-13  0.1860E-13  0.1930E-13  0.1950E-13  0.1870E-13  0.1700E-13  0.1570E-13
WAVELENGTH(A)= 
    57.827
 7 14 t 
excit   
     9.930     14.900     24.800     49.600     99.300    248.000    496.000    744.000    993.000   1490.000   2480.000   4960.000   9930.000  14900.000 
  0.1000E+11  0.1590E-19  0.1900E-16  0.5050E-14  0.2900E-12  0.1920E-11  0.5310E-11  0.7160E-11  0.7880E-11  0.8220E-11  0.8520E-11  0.8570E-11  0.8190E-11  0.7470E-11  0.6920E-11
  0.1000E+12  0.1440E-19  0.1690E-16  0.4400E-14  0.2480E-12  0.1600E-11  0.4270E-11  0.5710E-11  0.6280E-11  0.6570E-11  0.6850E-11  0.6960E-11  0.6770E-11  0.6310E-11  0.5920E-11
  0.1000E+13  0.7340E-20  0.7790E-17  0.1850E-14  0.9540E-13  0.5620E-12  0.1350E-11  0.1780E-11  0.1960E-11  0.2070E-11  0.2200E-11  0.2310E-11  0.2390E-11  0.2400E-11  0.2370E-11
  0.1000E+14  0.1470E-20  0.1310E-17  0.2660E-15  0.1210E-13  0.6440E-13  0.1460E-12  0.1910E-12  0.2130E-12  0.2260E-12  0.2430E-12  0.2600E-12  0.2780E-12  0.2920E-12  0.2990E-12
  0.1000E+15  0.4220E-21  0.3370E-18  0.6240E-16  0.2670E-14  0.1520E-13  0.3910E-13  0.5250E-13  0.5810E-13  0.6100E-13  0.6390E-13  0.6540E-13  0.6440E-13  0.6120E-13  0.5850E-13
  0.1000E+16  0.3250E-21  0.2550E-18  0.4660E-16  0.1990E-14  0.1170E-13  0.3140E-13  0.4250E-13  0.4690E-13  0.4910E-13  0.5110E-13  0.5160E-13  0.4950E-13  0.4530E-13  0.4210E-13
  0.1000E+17  0.3160E-21  0.2470E-18  0.4510E-16  0.1930E-14  0.1140E-13  0.3070E-13  0.4160E-13  0.4590E-13  0.4800E-13  0.4990E-13  0.5030E-13  0.4810E-13  0.4380E-13  0.4060E-13
WAVELENGTH(A)= 
    57.993
 7 14 t 
excit   
     9.930     14.900     24.800     49.600     99.300    248.000    496.000    744.000    993.000   1490.000   2480.000   4960.000   9930.000  14900.000 
  0.1000E+11  0.8330E-20  0.9250E-17  0.2320E-14  0.1280E-12  0.8290E-12  0.2270E-11  0.3070E-11  0.3350E-11  0.3490E-11  0.3600E-11  0.3610E-11  0.3440E-11  0.3110E-11  0.2870E-11
  0.1000E+12  0.9090E-20  0.1010E-16  0.2550E-14  0.1410E-12  0.9230E-12  0.2560E-11  0.3450E-11  0.3770E-11  0.3920E-11  0.4020E-11  0.4010E-11  0.3780E-11  0.3370E-11  0.3090E-11
  0.1000E+13  0.1150E-19  0.1200E-16  0.2820E-14  0.1460E-12  0.8880E-12  0.2240E-11  0.2940E-11  0.3220E-11  0.3370E-11  0.3500E-11  0.3570E-11  0.3510E-11  0.3310E-11  0.3130E-11
  0.1000E+14  0.5070E-20  0.4270E-17  0.8290E-15  0.3630E-13  0.1890E-12  0.4220E-12  0.5470E-12  0.6030E-12  0.6380E-12  0.6760E-12  0.7130E-12  0.7470E-12  0.7650E-12  0.7680E-12
  0.1000E+15  0.1780E-20  0.1310E-17  0.2290E-15  0.9340E-14  0.5170E-13  0.1300E-12  0.1730E-12  0.1910E-12  0.2000E-12  0.2080E-12  0.2120E-12  0.2070E-12  0.1950E-12  0.1850E-12
  0.1000E+16  0.1410E-20  0.1020E-17  0.1740E-15  0.7090E-14  0.4070E-13  0.1070E-12  0.1440E-12  0.1580E-12  0.1650E-12  0.1710E-12  0.1720E-12  0.1640E-12  0.1500E-12  0.1390E-12
  0.1000E+17  0.1370E-20  0.9910E-18  0.1690E-15  0.6870E-14  0.3970E-13  0.1050E-12  0.1410E-12  0.1550E-12  0.1620E-12  0.1670E-12  0.1680E-12  0.1600E-12  0.1450E-12  0.1350E-12
WAVELENGTH(A)= 
    58.080
 7 14 t 
excit   
     9.930     14.900     24.800     49.600     99.300    248.000    496.000    744.000    993.000   1490.000   2480.000   4960.000   9930.000  14900.000 
  0.1000E+11  0.4360E-20  0.4970E-17  0.1270E-14  0.7110E-13  0.4690E-12  0.1300E-11  0.1760E-11  0.1930E-11  0.2020E-11  0.2090E-11  0.2100E-11  0.2010E-11  0.1820E-11  0.1690E-11
  0.1000E+12  0.4210E-20  0.4710E-17  0.1180E-14  0.6510E-13  0.4220E-12  0.1150E-11  0.1550E-11  0.1710E-11  0.1800E-11  0.1870E-11  0.1900E-11  0.1850E-11  0.1710E-11  0.1600E-11
  0.1000E+13  0.2450E-20  0.2500E-17  0.5730E-15  0.2920E-13  0.1750E-12  0.4370E-12  0.5850E-12  0.6510E-12  0.6900E-12  0.7340E-12  0.7730E-12  0.7990E-12  0.7960E-12  0.7820E-12
  0.1000E+14  0.5890E-21  0.5060E-18  0.9960E-16  0.4450E-14  0.2380E-13  0.5480E-13  0.7240E-13  0.8090E-13  0.8620E-13  0.9250E-13  0.9920E-13  0.1060E-12  0.1120E-12  0.1140E-12
  0.1000E+15  0.1870E-21  0.1450E-18  0.2600E-16  0.1090E-14  0.6180E-14  0.1580E-13  0.2110E-13  0.2330E-13  0.2450E-13  0.2560E-13  0.2620E-13  0.2590E-13  0.2450E-13  0.2340E-13
  0.1000E+16  0.1480E-21  0.1130E-18  0.2000E-16  0.8390E-15  0.4880E-14  0.1290E-13  0.1740E-13  0.1910E-13  0.2000E-13  0.2070E-13  0.2090E-13  0.2010E-13  0.1830E-13  0.1700E-13
  0.1000E+17  0.1440E-21  0.1100E-18  0.1950E-16  0.8150E-15  0.4760E-14  0.1260E-13  0.1700E-13  0.1870E-13  0.1960E-13  0.2020E-13  0.2040E-13  0.1950E-13  0.1770E-13  0.1640E-13
WAVELENGTH(A)= 
    58.089
 7 14 t 
excit   
     9.930     14.900     24.800     49.600     99.300    248.000    496.000    744.000    993.000   1490.000   2480.000   4960.000   9930.000  14900.000 
  0.1000E+11  0.8290E-19  0.8760E-16  0.2100E-13  0.1110E-11  0.7110E-11  0.1910E-10  0.2560E-10  0.2800E-10  0.2920E-10  0.3010E-10  0.3030E-10  0.2880E-10  0.2610E-10  0.2430E-10
  0.1000E+12  0.7440E-19  0.7710E-16  0.1810E-13  0.9430E-12  0.5850E-11  0.1510E-10  0.2000E-10  0.2180E-10  0.2290E-10  0.2370E-10  0.2400E-10  0.2320E-10  0.2160E-10  0.2030E-10
  0.1000E+13  0.3750E-19  0.3510E-16  0.7500E-14  0.3590E-12  0.2020E-11  0.4700E-11  0.6070E-11  0.6660E-11  0.7020E-11  0.7390E-11  0.7730E-11  0.7940E-11  0.7940E-11  0.7850E-11
  0.1000E+14  0.7600E-20  0.5970E-17  0.1090E-14  0.4600E-13  0.2360E-12  0.5210E-12  0.6760E-12  0.7480E-12  0.7950E-12  0.8480E-12  0.9030E-12  0.9560E-12  0.9970E-12  0.1020E-11
  0.1000E+15  0.2280E-20  0.1590E-17  0.2650E-15  0.1050E-13  0.5760E-13  0.1440E-12  0.1930E-12  0.2120E-12  0.2230E-12  0.2320E-12  0.2370E-12  0.2320E-12  0.2190E-12  0.2090E-12
  0.1000E+16  0.1780E-20  0.1220E-17  0.2010E-15  0.7910E-14  0.4480E-13  0.1170E-12  0.1570E-12  0.1730E-12  0.1810E-12  0.1870E-12  0.1890E-12  0.1800E-12  0.1640E-12  0.1530E-12
  0.1000E+17  0.1730E-20  0.1190E-17  0.1950E-15  0.7660E-14  0.4360E-13  0.1140E-12  0.1540E-12  0.1690E-12  0.1770E-12  0.1830E-12  0.1840E-12  0.1750E-12  0.1590E-12  0.1470E-12
WAVELENGTH(A)= 
    58.184
 7 14 t 
excit   
     9.930     14.900     24.800     49.600     99.300    248.000    496.000    744.000    993.000   1490.000   2480.000   4960.000   9930.000  14900.000 
  0.1000E+11  0.7950E-19  0.8290E-16  0.1970E-13  0.1040E-11  0.6600E-11  0.1770E-10  0.2360E-10  0.2580E-10  0.2690E-10  0.2770E-10  0.2790E-10  0.2660E-10  0.2420E-10  0.2240E-10
  0.1000E+12  0.7040E-19  0.7200E-16  0.1680E-13  0.8670E-12  0.5350E-11  0.1380E-10  0.1820E-10  0.1980E-10  0.2070E-10  0.2140E-10  0.2170E-10  0.2110E-10  0.1970E-10  0.1850E-10
  0.1000E+13  0.3470E-19  0.3210E-16  0.6790E-14  0.3220E-12  0.1800E-11  0.4160E-11  0.5360E-11  0.5860E-11  0.6160E-11  0.6470E-11  0.6780E-11  0.6970E-11  0.6990E-11  0.6910E-11
  0.1000E+14  0.6870E-20  0.5340E-17  0.9710E-15  0.4070E-13  0.2070E-12  0.4550E-12  0.5890E-12  0.6510E-12  0.6900E-12  0.7340E-12  0.7810E-12  0.8280E-12  0.8620E-12  0.8760E-12
  0.1000E+15  0.2080E-20  0.1440E-17  0.2370E-15  0.9360E-14  0.5110E-13  0.1280E-12  0.1700E-12  0.1870E-12  0.1970E-12  0.2040E-12  0.2090E-12  0.2050E-12  0.1930E-12  0.1840E-12
  0.1000E+16  0.1630E-20  0.1110E-17  0.1800E-15  0.7060E-14  0.3990E-13  0.1040E-12  0.1400E-12  0.1530E-12  0.1600E-12  0.1650E-12  0.1670E-12  0.1600E-12  0.1460E-12  0.1350E-12
  0.1000E+17  0.1590E-20  0.1080E-17  0.1750E-15  0.6840E-14  0.3880E-13  0.1020E-12  0.1370E-12  0.1500E-12  0.1570E-12  0.1620E-12  0.1630E-12  0.1550E-12  0.1410E-12  0.1300E-12
WAVELENGTH(A)= 
    58.256
 7 14 t 
excit   
     9.930     14.900     24.800     49.600     99.300    248.000    496.000    744.000    993.000   1490.000   2480.000   4960.000   9930.000  14900.000 
  0.1000E+11  0.3290E-20  0.4150E-17  0.1150E-14  0.6750E-13  0.4540E-12  0.1260E-11  0.1710E-11  0.1880E-11  0.1970E-11  0.2030E-11  0.2050E-11  0.1960E-11  0.1780E-11  0.1650E-11
  0.1000E+12  0.3200E-20  0.3980E-17  0.1080E-14  0.6280E-13  0.4140E-12  0.1130E-11  0.1520E-11  0.1670E-11  0.1740E-11  0.1810E-11  0.1830E-11  0.1770E-11  0.1630E-11  0.1520E-11
  0.1000E+13  0.2120E-20  0.2390E-17  0.5960E-15  0.3210E-13  0.1970E-12  0.4980E-12  0.6620E-12  0.7310E-12  0.7700E-12  0.8110E-12  0.8440E-12  0.8560E-12  0.8360E-12  0.8130E-12
  0.1000E+14  0.6910E-21  0.6510E-18  0.1380E-15  0.6520E-14  0.3640E-13  0.8670E-13  0.1150E-12  0.1290E-12  0.1360E-12  0.1460E-12  0.1550E-12  0.1630E-12  0.1670E-12  0.1680E-12
  0.1000E+15  0.2820E-21  0.2350E-18  0.4500E-16  0.1980E-14  0.1140E-13  0.2970E-13  0.4000E-13  0.4420E-13  0.4640E-13  0.4850E-13  0.4960E-13  0.4860E-13  0.4580E-13  0.4360E-13
  0.1000E+16  0.2360E-21  0.1930E-18  0.3640E-16  0.1590E-14  0.9390E-14  0.2500E-13  0.3380E-13  0.3720E-13  0.3900E-13  0.4040E-13  0.4080E-13  0.3910E-13  0.3570E-13  0.3320E-13
  0.1000E+17  0.2310E-21  0.1890E-18  0.3560E-16  0.1550E-14  0.9190E-14  0.2460E-13  0.3320E-13  0.3650E-13  0.3820E-13  0.3960E-13  0.4000E-13  0.3820E-13  0.3470E-13  0.3220E-13
WAVELENGTH(A)= 
    58.461
 7 14 t 
excit   
     9.930     14.900     24.800     49.600     99.300    248.000    496.000    744.000    993.000   1490.000   2480.000   4960.000   9930.000  14900.000 
  0.1000E+11  0.3750E-20  0.4730E-17  0.1310E-14  0.7700E-13  0.5180E-12  0.1440E-11  0.1950E-11  0.2150E-11  0.2240E-11  0.2320E-11  0.2340E-11  0.2230E-11  0.2030E-11  0.1880E-11
  0.1000E+12  0.3650E-20  0.4530E-17  0.1230E-14  0.7160E-13  0.4730E-12  0.1280E-11  0.1730E-11  0.1900E-11  0.1990E-11  0.2060E-11  0.2090E-11  0.2020E-11  0.1860E-11  0.1740E-11
  0.1000E+13  0.2410E-20  0.2730E-17  0.6800E-15  0.3660E-13  0.2250E-12  0.5670E-12  0.7550E-12  0.8330E-12  0.8780E-12  0.9250E-12  0.9630E-12  0.9760E-12  0.9530E-12  0.9270E-12
  0.1000E+14  0.7880E-21  0.7430E-18  0.1580E-15  0.7430E-14  0.4150E-13  0.9890E-13  0.1320E-12  0.1470E-12  0.1560E-12  0.1660E-12  0.1770E-12  0.1860E-12  0.1900E-12  0.1910E-12
  0.1000E+15  0.3220E-21  0.2680E-18  0.5130E-16  0.2250E-14  0.1310E-13  0.3390E-13  0.4570E-13  0.5040E-13  0.5290E-13  0.5530E-13  0.5650E-13  0.5550E-13  0.5220E-13  0.4970E-13
  0.1000E+16  0.2690E-21  0.2200E-18  0.4150E-16  0.1810E-14  0.1070E-13  0.2850E-13  0.3860E-13  0.4240E-13  0.4440E-13  0.4610E-13  0.4650E-13  0.4460E-13  0.4070E-13  0.3780E-13
  0.1000E+17  0.2630E-21  0.2150E-18  0.4060E-16  0.1770E-14  0.1050E-13  0.2800E-13  0.3790E-13  0.4170E-13  0.4360E-13  0.4520E-13  0.4560E-13  0.4360E-13  0.3960E-13  0.3670E-13
WAVELENGTH(A)= 
    58.484
 7 14 t 
excit   
     9.930     14.900     24.800     49.600     99.300    248.000    496.000    744.000    993.000   1490.000   2480.000   4960.000   9930.000  14900.000 
  0.1000E+11  0.3590E-20  0.3990E-17  0.1000E-14  0.5500E-13  0.3570E-12  0.9780E-12  0.1320E-11  0.1450E-11  0.1500E-11  0.1550E-11  0.1560E-11  0.1480E-11  0.1340E-11  0.1240E-11
  0.1000E+12  0.3920E-20  0.4370E-17  0.1100E-14  0.6070E-13  0.3980E-12  0.1100E-11  0.1490E-11  0.1630E-11  0.1690E-11  0.1740E-11  0.1730E-11  0.1630E-11  0.1450E-11  0.1330E-11
  0.1000E+13  0.4970E-20  0.5170E-17  0.1210E-14  0.6290E-13  0.3830E-12  0.9640E-12  0.1270E-11  0.1390E-11  0.1450E-11  0.1510E-11  0.1540E-11  0.1520E-11  0.1430E-11  0.1350E-11
  0.1000E+14  0.2190E-20  0.1840E-17  0.3570E-15  0.1570E-13  0.8170E-13  0.1820E-12  0.2360E-12  0.2600E-12  0.2750E-12  0.2910E-12  0.3080E-12  0.3220E-12  0.3300E-12  0.3310E-12
  0.1000E+15  0.7690E-21  0.5660E-18  0.9850E-16  0.4030E-14  0.2230E-13  0.5600E-13  0.7480E-13  0.8220E-13  0.8630E-13  0.8960E-13  0.9130E-13  0.8940E-13  0.8410E-13  0.7990E-13
  0.1000E+16  0.6090E-21  0.4400E-18  0.7520E-16  0.3060E-14  0.1760E-13  0.4610E-13  0.6190E-13  0.6800E-13  0.7120E-13  0.7350E-13  0.7410E-13  0.7090E-13  0.6460E-13  0.5990E-13
  0.1000E+17  0.5930E-21  0.4270E-18  0.7300E-16  0.2960E-14  0.1710E-13  0.4510E-13  0.6070E-13  0.6670E-13  0.6980E-13  0.7200E-13  0.7250E-13  0.6910E-13  0.6270E-13  0.5800E-13
WAVELENGTH(A)= 
    58.900
 7 14 t 
excit   
     9.930     14.900     24.800     49.600     99.300    248.000    496.000    744.000    993.000   1490.000   2480.000   4960.000   9930.000  14900.000 
  0.1000E+11  0.9650E-20  0.1020E-16  0.2440E-14  0.1300E-12  0.8260E-12  0.2220E-11  0.2970E-11  0.3250E-11  0.3400E-11  0.3500E-11  0.3520E-11  0.3350E-11  0.3040E-11  0.2820E-11
  0.1000E+12  0.8660E-20  0.8970E-17  0.2110E-14  0.1100E-12  0.6800E-12  0.1760E-11  0.2330E-11  0.2540E-11  0.2660E-11  0.2750E-11  0.2790E-11  0.2700E-11  0.2510E-11  0.2360E-11
  0.1000E+13  0.4370E-20  0.4090E-17  0.8730E-15  0.4170E-13  0.2350E-12  0.5470E-12  0.7060E-12  0.7750E-12  0.8170E-12  0.8600E-12  0.9000E-12  0.9230E-12  0.9230E-12  0.9130E-12
  0.1000E+14  0.8840E-21  0.6940E-18  0.1270E-15  0.5350E-14  0.2740E-13  0.6060E-13  0.7860E-13  0.8700E-13  0.9250E-13  0.9860E-13  0.1050E-12  0.1110E-12  0.1160E-12  0.1180E-12
  0.1000E+15  0.2660E-21  0.1850E-18  0.3090E-16  0.1220E-14  0.6700E-14  0.1680E-13  0.2240E-13  0.2470E-13  0.2590E-13  0.2700E-13  0.2760E-13  0.2700E-13  0.2550E-13  0.2430E-13
  0.1000E+16  0.2070E-21  0.1420E-18  0.2330E-16  0.9190E-15  0.5210E-14  0.1360E-13  0.1830E-13  0.2010E-13  0.2110E-13  0.2180E-13  0.2200E-13  0.2100E-13  0.1910E-13  0.1770E-13
  0.1000E+17  0.2020E-21  0.1380E-18  0.2260E-16  0.8910E-15  0.5070E-14  0.1330E-13  0.1790E-13  0.1970E-13  0.2060E-13  0.2130E-13  0.2140E-13  0.2040E-13  0.1850E-13  0.1710E-13
WAVELENGTH(A)= 
    58.908
 7 14 t 
excit   
     9.930     14.900     24.800     49.600     99.300    248.000    496.000    744.000    993.000   1490.000   2480.000   4960.000   9930.000  14900.000 
  0.1000E+11  0.6120E-20  0.6460E-17  0.1550E-14  0.8220E-13  0.5240E-12  0.1410E-11  0.1890E-11  0.2060E-11  0.2160E-11  0.2220E-11  0.2230E-11  0.2120E-11  0.1930E-11  0.1790E-11
  0.1000E+12  0.5490E-20  0.5690E-17  0.1340E-14  0.6960E-13  0.4310E-12  0.1120E-11  0.1470E-11  0.1610E-11  0.1690E-11  0.1750E-11  0.1770E-11  0.1710E-11  0.1590E-11  0.1500E-11
  0.1000E+13  0.2770E-20  0.2590E-17  0.5540E-15  0.2650E-13  0.1490E-12  0.3470E-12  0.4480E-12  0.4910E-12  0.5180E-12  0.5450E-12  0.5700E-12  0.5850E-12  0.5850E-12  0.5790E-12
  0.1000E+14  0.5610E-21  0.4400E-18  0.8070E-16  0.3400E-14  0.1740E-13  0.3840E-13  0.4990E-13  0.5520E-13  0.5860E-13  0.6250E-13  0.6660E-13  0.7050E-13  0.7350E-13  0.7490E-13
  0.1000E+15  0.1680E-21  0.1180E-18  0.1960E-16  0.7760E-15  0.4250E-14  0.1070E-13  0.1420E-13  0.1560E-13  0.1650E-13  0.1710E-13  0.1750E-13  0.1710E-13  0.1620E-13  0.1540E-13
  0.1000E+16  0.1310E-21  0.9030E-19  0.1480E-16  0.5830E-15  0.3310E-14  0.8630E-14  0.1160E-13  0.1270E-13  0.1340E-13  0.1380E-13  0.1390E-13  0.1330E-13  0.1210E-13  0.1130E-13
  0.1000E+17  0.1280E-21  0.8760E-19  0.1430E-16  0.5650E-15  0.3220E-14  0.8440E-14  0.1130E-13  0.1250E-13  0.1310E-13  0.1350E-13  0.1360E-13  0.1290E-13  0.1170E-13  0.1090E-13
WAVELENGTH(A)= 
    59.719
 7 14 t 
excit   
     9.930     14.900     24.800     49.600     99.300    248.000    496.000    744.000    993.000   1490.000   2480.000   4960.000   9930.000  14900.000 
  0.1000E+11  0.4410E-20  0.4660E-17  0.1120E-14  0.5930E-13  0.3780E-12  0.1020E-11  0.1360E-11  0.1490E-11  0.1550E-11  0.1600E-11  0.1610E-11  0.1530E-11  0.1390E-11  0.1290E-11
  0.1000E+12  0.3960E-20  0.4100E-17  0.9640E-15  0.5020E-13  0.3110E-12  0.8050E-12  0.1060E-11  0.1160E-11  0.1220E-11  0.1260E-11  0.1280E-11  0.1240E-11  0.1150E-11  0.1080E-11
  0.1000E+13  0.2000E-20  0.1870E-17  0.3990E-15  0.1910E-13  0.1070E-12  0.2500E-12  0.3230E-12  0.3540E-12  0.3730E-12  0.3930E-12  0.4110E-12  0.4220E-12  0.4220E-12  0.4170E-12
  0.1000E+14  0.4040E-21  0.3170E-18  0.5820E-16  0.2450E-14  0.1250E-13  0.2770E-13  0.3600E-13  0.3980E-13  0.4230E-13  0.4510E-13  0.4810E-13  0.5090E-13  0.5300E-13  0.5400E-13
  0.1000E+15  0.1210E-21  0.8480E-19  0.1410E-16  0.5600E-15  0.3060E-14  0.7680E-14  0.1020E-13  0.1130E-13  0.1190E-13  0.1240E-13  0.1260E-13  0.1240E-13  0.1170E-13  0.1110E-13
  0.1000E+16  0.9480E-22  0.6510E-19  0.1070E-16  0.4200E-15  0.2380E-14  0.6230E-14  0.8360E-14  0.9190E-14  0.9630E-14  0.9960E-14  0.1000E-13  0.9590E-14  0.8730E-14  0.8120E-14
  0.1000E+17  0.9220E-22  0.6320E-19  0.1030E-16  0.4070E-15  0.2320E-14  0.6090E-14  0.8180E-14  0.8990E-14  0.9420E-14  0.9730E-14  0.9800E-14  0.9330E-14  0.8460E-14  0.7830E-14
WAVELENGTH(A)= 
    59.819
 7 14 t 
excit   
     9.930     14.900     24.800     49.600     99.300    248.000    496.000    744.000    993.000   1490.000   2480.000   4960.000   9930.000  14900.000 
  0.1000E+11  0.4570E-20  0.4760E-17  0.1130E-14  0.5970E-13  0.3790E-12  0.1020E-11  0.1360E-11  0.1490E-11  0.1550E-11  0.1590E-11  0.1600E-11  0.1530E-11  0.1390E-11  0.1290E-11
  0.1000E+12  0.4050E-20  0.4140E-17  0.9630E-15  0.4980E-13  0.3070E-12  0.7910E-12  0.1040E-11  0.1140E-11  0.1190E-11  0.1230E-11  0.1250E-11  0.1210E-11  0.1130E-11  0.1060E-11
  0.1000E+13  0.1990E-20  0.1840E-17  0.3900E-15  0.1850E-13  0.1040E-12  0.2390E-12  0.3080E-12  0.3370E-12  0.3540E-12  0.3720E-12  0.3900E-12  0.4010E-12  0.4020E-12  0.3970E-12
  0.1000E+14  0.3950E-21  0.3070E-18  0.5580E-16  0.2340E-14  0.1190E-13  0.2620E-13  0.3390E-13  0.3740E-13  0.3960E-13  0.4220E-13  0.4490E-13  0.4760E-13  0.4950E-13  0.5040E-13
  0.1000E+15  0.1200E-21  0.8270E-19  0.1360E-16  0.5380E-15  0.2940E-14  0.7340E-14  0.9790E-14  0.1080E-13  0.1130E-13  0.1170E-13  0.1200E-13  0.1180E-13  0.1110E-13  0.1060E-13
  0.1000E+16  0.9390E-22  0.6370E-19  0.1040E-16  0.4060E-15  0.2290E-14  0.5970E-14  0.8020E-14  0.8810E-14  0.9210E-14  0.9510E-14  0.9600E-14  0.9180E-14  0.8360E-14  0.7760E-14
  0.1000E+17  0.9140E-22  0.6190E-19  0.1000E-16  0.3930E-15  0.2230E-14  0.5840E-14  0.7850E-14  0.8620E-14  0.9010E-14  0.9300E-14  0.9370E-14  0.8930E-14  0.8110E-14  0.7500E-14
WAVELENGTH(A)= 
    59.934
 7 14 t 
excit   
     9.930     14.900     24.800     49.600     99.300    248.000    496.000    744.000    993.000   1490.000   2480.000   4960.000   9930.000  14900.000 
  0.1000E+11  0.6000E-20  0.6340E-17  0.1520E-14  0.8070E-13  0.5140E-12  0.1380E-11  0.1850E-11  0.2020E-11  0.2110E-11  0.2180E-11  0.2190E-11  0.2080E-11  0.1890E-11  0.1750E-11
  0.1000E+12  0.5380E-20  0.5580E-17  0.1310E-14  0.6820E-13  0.4230E-12  0.1090E-11  0.1450E-11  0.1580E-11  0.1650E-11  0.1710E-11  0.1740E-11  0.1680E-11  0.1560E-11  0.1470E-11
  0.1000E+13  0.2720E-20  0.2540E-17  0.5430E-15  0.2590E-13  0.1460E-12  0.3400E-12  0.4390E-12  0.4820E-12  0.5080E-12  0.5350E-12  0.5590E-12  0.5740E-12  0.5740E-12  0.5680E-12
  0.1000E+14  0.5500E-21  0.4320E-18  0.7910E-16  0.3330E-14  0.1700E-13  0.3770E-13  0.4890E-13  0.5410E-13  0.5750E-13  0.6130E-13  0.6540E-13  0.6920E-13  0.7210E-13  0.7350E-13
  0.1000E+15  0.1650E-21  0.1150E-18  0.1920E-16  0.7610E-15  0.4170E-14  0.1050E-13  0.1390E-13  0.1530E-13  0.1610E-13  0.1680E-13  0.1720E-13  0.1680E-13  0.1590E-13  0.1510E-13
  0.1000E+16  0.1290E-21  0.8850E-19  0.1450E-16  0.5720E-15  0.3240E-14  0.8470E-14  0.1140E-13  0.1250E-13  0.1310E-13  0.1350E-13  0.1370E-13  0.1300E-13  0.1190E-13  0.1100E-13
  0.1000E+17  0.1250E-21  0.8590E-19  0.1410E-16  0.5540E-15  0.3150E-14  0.8280E-14  0.1110E-13  0.1220E-13  0.1280E-13  0.1320E-13  0.1330E-13  0.1270E-13  0.1150E-13  0.1070E-13
WAVELENGTH(A)= 
    60.217
 7 14 t 
excit   
     9.930     14.900     24.800     49.600     99.300    248.000    496.000    744.000    993.000   1490.000   2480.000   4960.000   9930.000  14900.000 
  0.1000E+11  0.4800E-20  0.5000E-17  0.1190E-14  0.6270E-13  0.3980E-12  0.1070E-11  0.1430E-11  0.1560E-11  0.1630E-11  0.1670E-11  0.1680E-11  0.1610E-11  0.1460E-11  0.1350E-11
  0.1000E+12  0.4250E-20  0.4350E-17  0.1010E-14  0.5230E-13  0.3230E-12  0.8300E-12  0.1100E-11  0.1200E-11  0.1250E-11  0.1290E-11  0.1310E-11  0.1270E-11  0.1190E-11  0.1120E-11
  0.1000E+13  0.2090E-20  0.1940E-17  0.4100E-15  0.1950E-13  0.1090E-12  0.2510E-12  0.3230E-12  0.3540E-12  0.3720E-12  0.3910E-12  0.4090E-12  0.4210E-12  0.4220E-12  0.4170E-12
  0.1000E+14  0.4150E-21  0.3220E-18  0.5860E-16  0.2460E-14  0.1250E-13  0.2750E-13  0.3560E-13  0.3930E-13  0.4160E-13  0.4430E-13  0.4720E-13  0.5000E-13  0.5200E-13  0.5290E-13
  0.1000E+15  0.1260E-21  0.8680E-19  0.1430E-16  0.5650E-15  0.3090E-14  0.7710E-14  0.1030E-13  0.1130E-13  0.1190E-13  0.1230E-13  0.1260E-13  0.1240E-13  0.1170E-13  0.1110E-13
  0.1000E+16  0.9870E-22  0.6700E-19  0.1090E-16  0.4260E-15  0.2410E-14  0.6270E-14  0.8430E-14  0.9250E-14  0.9680E-14  0.9990E-14  0.1010E-13  0.9640E-14  0.8790E-14  0.8150E-14
  0.1000E+17  0.9600E-22  0.6500E-19  0.1050E-16  0.4130E-15  0.2340E-14  0.6140E-14  0.8250E-14  0.9050E-14  0.9470E-14  0.9770E-14  0.9850E-14  0.9390E-14  0.8520E-14  0.7870E-14
WAVELENGTH(A)= 
  2014.270
 7 14 t 
excit   
     9.930     14.900     24.800     49.600     99.300    248.000    496.000    744.000    993.000   1490.000   2480.000   4960.000   9930.000  14900.000 
  0.1000E+11  0.3260E-11  0.4000E-11  0.4760E-11  0.5450E-11  0.5800E-11  0.5680E-11  0.5150E-11  0.4750E-11  0.4470E-11  0.4070E-11  0.3580E-11  0.2960E-11  0.2420E-11  0.2130E-11
  0.1000E+12  0.3480E-11  0.4240E-11  0.5000E-11  0.5650E-11  0.6010E-11  0.5900E-11  0.5390E-11  0.5010E-11  0.4740E-11  0.4340E-11  0.3870E-11  0.3250E-11  0.2680E-11  0.2380E-11
  0.1000E+13  0.1330E-11  0.1500E-11  0.1620E-11  0.1690E-11  0.1650E-11  0.1510E-11  0.1400E-11  0.1340E-11  0.1310E-11  0.1260E-11  0.1200E-11  0.1140E-11  0.1080E-11  0.1040E-11
  0.1000E+14  0.8260E-13  0.7970E-13  0.7470E-13  0.6880E-13  0.6020E-13  0.5190E-13  0.5010E-13  0.5000E-13  0.5030E-13  0.5100E-13  0.5240E-13  0.5530E-13  0.5930E-13  0.6220E-13
  0.1000E+15  0.3660E-14  0.3240E-14  0.2820E-14  0.2490E-14  0.2300E-14  0.2200E-14  0.2200E-14  0.2200E-14  0.2210E-14  0.2220E-14  0.2250E-14  0.2290E-14  0.2350E-14  0.2400E-14
  0.1000E+16  0.3080E-15  0.2700E-15  0.2340E-15  0.2060E-15  0.1950E-15  0.1920E-15  0.1930E-15  0.1930E-15  0.1930E-15  0.1940E-15  0.1940E-15  0.1950E-15  0.1960E-15  0.1960E-15
  0.1000E+17  0.3030E-16  0.2650E-16  0.2290E-16  0.2020E-16  0.1920E-16  0.1900E-16  0.1900E-16  0.1900E-16  0.1910E-16  0.1910E-16  0.1910E-16  0.1920E-16  0.1920E-16  0.1920E-16
WAVELENGTH(A)= 
  2058.340
 7 14 t 
excit   
     9.930     14.900     24.800     49.600     99.300    248.000    496.000    744.000    993.000   1490.000   2480.000   4960.000   9930.000  14900.000 
  0.1000E+11  0.1180E-11  0.1410E-11  0.1620E-11  0.1820E-11  0.2080E-11  0.2410E-11  0.2460E-11  0.2420E-11  0.2370E-11  0.2280E-11  0.2140E-11  0.1910E-11  0.1660E-11  0.1510E-11
  0.1000E+12  0.1060E-11  0.1250E-11  0.1430E-11  0.1590E-11  0.1850E-11  0.2250E-11  0.2370E-11  0.2360E-11  0.2330E-11  0.2260E-11  0.2140E-11  0.1910E-11  0.1650E-11  0.1490E-11
  0.1000E+13  0.7070E-12  0.8150E-12  0.9100E-12  0.1050E-11  0.1460E-11  0.2130E-11  0.2400E-11  0.2480E-11  0.2510E-11  0.2510E-11  0.2460E-11  0.2310E-11  0.2080E-11  0.1920E-11
  0.1000E+14  0.2930E-12  0.2860E-12  0.2700E-12  0.2620E-12  0.2800E-12  0.2990E-12  0.3100E-12  0.3170E-12  0.3230E-12  0.3310E-12  0.3420E-12  0.3580E-12  0.3770E-12  0.3880E-12
  0.1000E+15  0.3450E-13  0.2890E-13  0.2420E-13  0.2080E-13  0.1960E-13  0.1930E-13  0.1950E-13  0.1960E-13  0.1980E-13  0.1990E-13  0.2020E-13  0.2060E-13  0.2100E-13  0.2140E-13
  0.1000E+16  0.3430E-14  0.2820E-14  0.2330E-14  0.1970E-14  0.1830E-14  0.1790E-14  0.1800E-14  0.1810E-14  0.1810E-14  0.1820E-14  0.1830E-14  0.1840E-14  0.1850E-14  0.1860E-14
  0.1000E+17  0.3430E-15  0.2810E-15  0.2310E-15  0.1960E-15  0.1810E-15  0.1780E-15  0.1780E-15  0.1790E-15  0.1800E-15  0.1800E-15  0.1810E-15  0.1820E-15  0.1830E-15  0.1830E-15
WAVELENGTH(A)= 
  2128.510
 7 14 t 
excit   
     9.930     14.900     24.800     49.600     99.300    248.000    496.000    744.000    993.000   1490.000   2480.000   4960.000   9930.000  14900.000 
  0.1000E+11  0.7440E-12  0.9400E-12  0.1140E-11  0.1420E-11  0.2140E-11  0.3460E-11  0.4080E-11  0.4260E-11  0.4330E-11  0.4340E-11  0.4250E-11  0.3950E-11  0.3520E-11  0.3240E-11
  0.1000E+12  0.9170E-12  0.1160E-11  0.1410E-11  0.1730E-11  0.2480E-11  0.3780E-11  0.4340E-11  0.4500E-11  0.4550E-11  0.4530E-11  0.4400E-11  0.4070E-11  0.3610E-11  0.3310E-11
  0.1000E+13  0.9870E-12  0.1170E-11  0.1340E-11  0.1540E-11  0.1940E-11  0.2510E-11  0.2730E-11  0.2800E-11  0.2830E-11  0.2840E-11  0.2820E-11  0.2730E-11  0.2560E-11  0.2440E-11
  0.1000E+14  0.2710E-12  0.2520E-12  0.2310E-12  0.2140E-12  0.2060E-12  0.2020E-12  0.2070E-12  0.2110E-12  0.2160E-12  0.2220E-12  0.2330E-12  0.2500E-12  0.2700E-12  0.2840E-12
  0.1000E+15  0.2010E-13  0.1610E-13  0.1290E-13  0.1080E-13  0.9910E-14  0.9600E-14  0.9660E-14  0.9740E-14  0.9820E-14  0.9930E-14  0.1010E-13  0.1040E-13  0.1070E-13  0.1100E-13
  0.1000E+16  0.1820E-14  0.1430E-14  0.1140E-14  0.9380E-15  0.8620E-15  0.8420E-15  0.8450E-15  0.8500E-15  0.8530E-15  0.8570E-15  0.8630E-15  0.8690E-15  0.8740E-15  0.8770E-15
  0.1000E+17  0.1800E-15  0.1410E-15  0.1120E-15  0.9230E-16  0.8490E-16  0.8300E-16  0.8330E-16  0.8370E-16  0.8400E-16  0.8440E-16  0.8480E-16  0.8520E-16  0.8540E-16  0.8560E-16
WAVELENGTH(A)= 
  2181.910
 7 14 t 
excit   
     9.930     14.900     24.800     49.600     99.300    248.000    496.000    744.000    993.000   1490.000   2480.000   4960.000   9930.000  14900.000 
  0.1000E+11  0.4360E-12  0.5770E-12  0.7200E-12  0.8990E-12  0.1350E-11  0.2200E-11  0.2610E-11  0.2740E-11  0.2790E-11  0.2810E-11  0.2760E-11  0.2570E-11  0.2290E-11  0.2110E-11
  0.1000E+12  0.5370E-12  0.7040E-12  0.8690E-12  0.1060E-11  0.1510E-11  0.2300E-11  0.2660E-11  0.2770E-11  0.2810E-11  0.2820E-11  0.2770E-11  0.2590E-11  0.2330E-11  0.2150E-11
  0.1000E+13  0.4300E-12  0.5150E-12  0.5840E-12  0.6580E-12  0.8140E-12  0.1050E-11  0.1160E-11  0.1200E-11  0.1220E-11  0.1240E-11  0.1260E-11  0.1240E-11  0.1210E-11  0.1170E-11
  0.1000E+14  0.8570E-13  0.8400E-13  0.7980E-13  0.7640E-13  0.7770E-13  0.8150E-13  0.8550E-13  0.8840E-13  0.9060E-13  0.9410E-13  0.9880E-13  0.1060E-12  0.1150E-12  0.1210E-12
  0.1000E+15  0.7570E-14  0.6620E-14  0.5730E-14  0.5040E-14  0.4750E-14  0.4690E-14  0.4740E-14  0.4780E-14  0.4820E-14  0.4880E-14  0.4970E-14  0.5090E-14  0.5250E-14  0.5360E-14
  0.1000E+16  0.7300E-15  0.6300E-15  0.5390E-15  0.4690E-15  0.4380E-15  0.4290E-15  0.4300E-15  0.4320E-15  0.4340E-15  0.4360E-15  0.4390E-15  0.4420E-15  0.4450E-15  0.4470E-15
  0.1000E+17  0.7270E-16  0.6260E-16  0.5350E-16  0.4650E-16  0.4350E-16  0.4250E-16  0.4260E-16  0.4280E-16  0.4290E-16  0.4310E-16  0.4330E-16  0.4350E-16  0.4370E-16  0.4380E-16
WAVELENGTH(A)= 
  2362.210
 7 14 t 
excit   
     9.930     14.900     24.800     49.600     99.300    248.000    496.000    744.000    993.000   1490.000   2480.000   4960.000   9930.000  14900.000 
  0.1000E+11  0.4720E-12  0.6190E-12  0.7630E-12  0.9030E-12  0.1130E-11  0.1500E-11  0.1640E-11  0.1660E-11  0.1650E-11  0.1620E-11  0.1550E-11  0.1410E-11  0.1230E-11  0.1120E-11
  0.1000E+12  0.5670E-12  0.7420E-12  0.9180E-12  0.1100E-11  0.1430E-11  0.1990E-11  0.2200E-11  0.2230E-11  0.2230E-11  0.2170E-11  0.2060E-11  0.1830E-11  0.1560E-11  0.1400E-11
  0.1000E+13  0.7810E-12  0.9710E-12  0.1150E-11  0.1360E-11  0.1770E-11  0.2370E-11  0.2600E-11  0.2650E-11  0.2670E-11  0.2650E-11  0.2590E-11  0.2430E-11  0.2190E-11  0.2030E-11
  0.1000E+14  0.3030E-12  0.2970E-12  0.2830E-12  0.2710E-12  0.2730E-12  0.2780E-12  0.2850E-12  0.2910E-12  0.2960E-12  0.3030E-12  0.3140E-12  0.3310E-12  0.3510E-12  0.3630E-12
  0.1000E+15  0.2810E-13  0.2380E-13  0.2010E-13  0.1740E-13  0.1630E-13  0.1590E-13  0.1600E-13  0.1610E-13  0.1620E-13  0.1640E-13  0.1660E-13  0.1700E-13  0.1740E-13  0.1770E-13
  0.1000E+16  0.2680E-14  0.2230E-14  0.1860E-14  0.1580E-14  0.1470E-14  0.1440E-14  0.1450E-14  0.1460E-14  0.1460E-14  0.1470E-14  0.1470E-14  0.1480E-14  0.1490E-14  0.1500E-14
  0.1000E+17  0.2670E-15  0.2220E-15  0.1840E-15  0.1570E-15  0.1460E-15  0.1430E-15  0.1430E-15  0.1440E-15  0.1440E-15  0.1450E-15  0.1450E-15  0.1460E-15  0.1470E-15  0.1470E-15
WAVELENGTH(A)= 
  2542.310
 7 14 t 
excit   
     9.930     14.900     24.800     49.600     99.300    248.000    496.000    744.000    993.000   1490.000   2480.000   4960.000   9930.000  14900.000 
  0.1000E+11  0.1210E-11  0.1510E-11  0.1830E-11  0.2150E-11  0.2580E-11  0.3150E-11  0.3280E-11  0.3250E-11  0.3200E-11  0.3090E-11  0.2910E-11  0.2590E-11  0.2240E-11  0.2030E-11
  0.1000E+12  0.1700E-11  0.2140E-11  0.2610E-11  0.3070E-11  0.3650E-11  0.4310E-11  0.4360E-11  0.4260E-11  0.4140E-11  0.3940E-11  0.3650E-11  0.3180E-11  0.2700E-11  0.2420E-11
  0.1000E+13  0.1840E-11  0.2180E-11  0.2490E-11  0.2750E-11  0.2950E-11  0.3040E-11  0.2980E-11  0.2920E-11  0.2870E-11  0.2780E-11  0.2670E-11  0.2490E-11  0.2270E-11  0.2130E-11
  0.1000E+14  0.2920E-12  0.2780E-12  0.2590E-12  0.2390E-12  0.2120E-12  0.1890E-12  0.1860E-12  0.1870E-12  0.1890E-12  0.1930E-12  0.1990E-12  0.2110E-12  0.2260E-12  0.2370E-12
  0.1000E+15  0.1590E-13  0.1350E-13  0.1140E-13  0.9870E-14  0.9060E-14  0.8680E-14  0.8670E-14  0.8710E-14  0.8750E-14  0.8830E-14  0.8940E-14  0.9140E-14  0.9410E-14  0.9600E-14
  0.1000E+16  0.1370E-14  0.1160E-14  0.9680E-15  0.8310E-15  0.7780E-15  0.7620E-15  0.7640E-15  0.7660E-15  0.7680E-15  0.7710E-15  0.7740E-15  0.7780E-15  0.7820E-15  0.7840E-15
  0.1000E+17  0.1350E-15  0.1140E-15  0.9500E-16  0.8150E-16  0.7650E-16  0.7520E-16  0.7530E-16  0.7560E-16  0.7570E-16  0.7600E-16  0.7620E-16  0.7640E-16  0.7660E-16  0.7670E-16
WAVELENGTH(A)= 
  2663.770
 7 14 t 
excit   
     9.930     14.900     24.800     49.600     99.300    248.000    496.000    744.000    993.000   1490.000   2480.000   4960.000   9930.000  14900.000 
  0.1000E+11  0.8110E-12  0.1020E-11  0.1250E-11  0.1550E-11  0.2340E-11  0.3770E-11  0.4440E-11  0.4640E-11  0.4720E-11  0.4730E-11  0.4630E-11  0.4300E-11  0.3840E-11  0.3530E-11
  0.1000E+12  0.9990E-12  0.1260E-11  0.1530E-11  0.1880E-11  0.2710E-11  0.4120E-11  0.4730E-11  0.4900E-11  0.4950E-11  0.4930E-11  0.4800E-11  0.4430E-11  0.3940E-11  0.3610E-11
  0.1000E+13  0.1080E-11  0.1280E-11  0.1460E-11  0.1680E-11  0.2120E-11  0.2730E-11  0.2980E-11  0.3050E-11  0.3080E-11  0.3100E-11  0.3070E-11  0.2970E-11  0.2790E-11  0.2660E-11
  0.1000E+14  0.2950E-12  0.2740E-12  0.2510E-12  0.2330E-12  0.2250E-12  0.2210E-12  0.2250E-12  0.2300E-12  0.2350E-12  0.2420E-12  0.2540E-12  0.2720E-12  0.2940E-12  0.3090E-12
  0.1000E+15  0.2190E-13  0.1750E-13  0.1410E-13  0.1180E-13  0.1080E-13  0.1050E-13  0.1050E-13  0.1060E-13  0.1070E-13  0.1080E-13  0.1100E-13  0.1130E-13  0.1170E-13  0.1200E-13
  0.1000E+16  0.1990E-14  0.1560E-14  0.1240E-14  0.1020E-14  0.9400E-15  0.9180E-15  0.9210E-15  0.9260E-15  0.9290E-15  0.9340E-15  0.9400E-15  0.9470E-15  0.9530E-15  0.9560E-15
  0.1000E+17  0.1970E-15  0.1540E-15  0.1220E-15  0.1010E-15  0.9260E-16  0.9050E-16  0.9080E-16  0.9120E-16  0.9150E-16  0.9190E-16  0.9240E-16  0.9280E-16  0.9310E-16  0.9320E-16
WAVELENGTH(A)= 
  3215.080
 7 14 t 
excit   
     9.930     14.900     24.800     49.600     99.300    248.000    496.000    744.000    993.000   1490.000   2480.000   4960.000   9930.000  14900.000 
  0.1000E+11  0.7250E-12  0.9070E-12  0.1100E-11  0.1290E-11  0.1550E-11  0.1890E-11  0.1970E-11  0.1950E-11  0.1920E-11  0.1850E-11  0.1740E-11  0.1560E-11  0.1350E-11  0.1220E-11
  0.1000E+12  0.1020E-11  0.1280E-11  0.1560E-11  0.1840E-11  0.2190E-11  0.2590E-11  0.2620E-11  0.2550E-11  0.2490E-11  0.2360E-11  0.2190E-11  0.1910E-11  0.1620E-11  0.1450E-11
  0.1000E+13  0.1100E-11  0.1310E-11  0.1490E-11  0.1650E-11  0.1770E-11  0.1820E-11  0.1790E-11  0.1750E-11  0.1720E-11  0.1670E-11  0.1600E-11  0.1490E-11  0.1360E-11  0.1280E-11
  0.1000E+14  0.1750E-12  0.1670E-12  0.1560E-12  0.1430E-12  0.1270E-12  0.1140E-12  0.1120E-12  0.1120E-12  0.1130E-12  0.1160E-12  0.1200E-12  0.1270E-12  0.1360E-12  0.1420E-12
  0.1000E+15  0.9540E-14  0.8110E-14  0.6870E-14  0.5920E-14  0.5430E-14  0.5210E-14  0.5200E-14  0.5230E-14  0.5250E-14  0.5300E-14  0.5370E-14  0.5490E-14  0.5640E-14  0.5760E-14
  0.1000E+16  0.8250E-15  0.6930E-15  0.5810E-15  0.4980E-15  0.4670E-15  0.4570E-15  0.4580E-15  0.4600E-15  0.4610E-15  0.4620E-15  0.4640E-15  0.4670E-15  0.4690E-15  0.4710E-15
  0.1000E+17  0.8110E-16  0.6810E-16  0.5700E-16  0.4890E-16  0.4590E-16  0.4510E-16  0.4520E-16  0.4530E-16  0.4540E-16  0.4560E-16  0.4570E-16  0.4590E-16  0.4600E-16  0.4600E-16
WAVELENGTH(A)= 
  3413.210
 7 14 t 
excit   
     9.930     14.900     24.800     49.600     99.300    248.000    496.000    744.000    993.000   1490.000   2480.000   4960.000   9930.000  14900.000 
  0.1000E+11  0.2340E-12  0.3050E-12  0.3800E-12  0.5160E-12  0.9890E-12  0.1910E-11  0.2390E-11  0.2560E-11  0.2630E-11  0.2680E-11  0.2660E-11  0.2500E-11  0.2250E-11  0.2070E-11
  0.1000E+12  0.3080E-12  0.4000E-12  0.4960E-12  0.6480E-12  0.1110E-11  0.1970E-11  0.2390E-11  0.2530E-11  0.2600E-11  0.2630E-11  0.2600E-11  0.2450E-11  0.2220E-11  0.2050E-11
  0.1000E+13  0.3790E-12  0.4480E-12  0.5100E-12  0.5880E-12  0.7770E-12  0.1050E-11  0.1180E-11  0.1220E-11  0.1250E-11  0.1270E-11  0.1280E-11  0.1270E-11  0.1230E-11  0.1190E-11
  0.1000E+14  0.9190E-13  0.8520E-13  0.7770E-13  0.7220E-13  0.7090E-13  0.7130E-13  0.7370E-13  0.7590E-13  0.7780E-13  0.8070E-13  0.8500E-13  0.9210E-13  0.1010E-12  0.1070E-12
  0.1000E+15  0.6670E-14  0.5440E-14  0.4460E-14  0.3770E-14  0.3480E-14  0.3390E-14  0.3420E-14  0.3460E-14  0.3490E-14  0.3530E-14  0.3600E-14  0.3700E-14  0.3830E-14  0.3920E-14
  0.1000E+16  0.6110E-15  0.4920E-15  0.3990E-15  0.3330E-15  0.3070E-15  0.3000E-15  0.3010E-15  0.3030E-15  0.3040E-15  0.3060E-15  0.3080E-15  0.3100E-15  0.3120E-15  0.3140E-15
  0.1000E+17  0.6050E-16  0.4870E-16  0.3940E-16  0.3290E-16  0.3030E-16  0.2960E-16  0.2970E-16  0.2990E-16  0.3000E-16  0.3010E-16  0.3030E-16  0.3040E-16  0.3050E-16  0.3060E-16
WAVELENGTH(A)= 
  3506.840
 7 14 t 
excit   
     9.930     14.900     24.800     49.600     99.300    248.000    496.000    744.000    993.000   1490.000   2480.000   4960.000   9930.000  14900.000 
  0.1000E+11  0.5460E-12  0.7130E-12  0.8880E-12  0.1210E-11  0.2310E-11  0.4480E-11  0.5590E-11  0.5980E-11  0.6160E-11  0.6260E-11  0.6210E-11  0.5840E-11  0.5260E-11  0.4850E-11
  0.1000E+12  0.7210E-12  0.9350E-12  0.1160E-11  0.1520E-11  0.2600E-11  0.4610E-11  0.5590E-11  0.5920E-11  0.6070E-11  0.6150E-11  0.6090E-11  0.5740E-11  0.5180E-11  0.4800E-11
  0.1000E+13  0.8870E-12  0.1050E-11  0.1190E-11  0.1370E-11  0.1820E-11  0.2470E-11  0.2750E-11  0.2860E-11  0.2920E-11  0.2970E-11  0.3000E-11  0.2970E-11  0.2870E-11  0.2780E-11
  0.1000E+14  0.2150E-12  0.1990E-12  0.1820E-12  0.1690E-12  0.1660E-12  0.1670E-12  0.1720E-12  0.1780E-12  0.1820E-12  0.1890E-12  0.1990E-12  0.2150E-12  0.2360E-12  0.2500E-12
  0.1000E+15  0.1560E-13  0.1270E-13  0.1040E-13  0.8810E-14  0.8140E-14  0.7940E-14  0.8000E-14  0.8080E-14  0.8160E-14  0.8260E-14  0.8410E-14  0.8650E-14  0.8950E-14  0.9170E-14
  0.1000E+16  0.1430E-14  0.1150E-14  0.9320E-15  0.7790E-15  0.7190E-15  0.7020E-15  0.7040E-15  0.7080E-15  0.7110E-15  0.7150E-15  0.7190E-15  0.7250E-15  0.7300E-15  0.7330E-15
  0.1000E+17  0.1420E-15  0.1140E-15  0.9210E-16  0.7690E-16  0.7090E-16  0.6930E-16  0.6950E-16  0.6980E-16  0.7010E-16  0.7040E-16  0.7070E-16  0.7110E-16  0.7140E-16  0.7150E-16
WAVELENGTH(A)= 
  3793.200
 7 14 t 
excit   
     9.930     14.900     24.800     49.600     99.300    248.000    496.000    744.000    993.000   1490.000   2480.000   4960.000   9930.000  14900.000 
  0.1000E+11  0.1170E-11  0.1430E-11  0.1700E-11  0.1950E-11  0.2070E-11  0.2030E-11  0.1840E-11  0.1700E-11  0.1600E-11  0.1450E-11  0.1280E-11  0.1060E-11  0.8640E-12  0.7600E-12
  0.1000E+12  0.1250E-11  0.1520E-11  0.1790E-11  0.2020E-11  0.2150E-11  0.2110E-11  0.1930E-11  0.1790E-11  0.1690E-11  0.1550E-11  0.1380E-11  0.1160E-11  0.9600E-12  0.8510E-12
  0.1000E+13  0.4770E-12  0.5360E-12  0.5790E-12  0.6040E-12  0.5910E-12  0.5390E-12  0.5000E-12  0.4800E-12  0.4670E-12  0.4500E-12  0.4310E-12  0.4070E-12  0.3850E-12  0.3710E-12
  0.1000E+14  0.2950E-13  0.2850E-13  0.2670E-13  0.2460E-13  0.2150E-13  0.1860E-13  0.1790E-13  0.1790E-13  0.1800E-13  0.1820E-13  0.1870E-13  0.1980E-13  0.2120E-13  0.2220E-13
  0.1000E+15  0.1310E-14  0.1160E-14  0.1010E-14  0.8890E-15  0.8220E-15  0.7880E-15  0.7850E-15  0.7870E-15  0.7900E-15  0.7950E-15  0.8040E-15  0.8190E-15  0.8400E-15  0.8570E-15
  0.1000E+16  0.1100E-15  0.9660E-16  0.8360E-16  0.7360E-16  0.6980E-16  0.6870E-16  0.6880E-16  0.6900E-16  0.6910E-16  0.6930E-16  0.6950E-16  0.6970E-16  0.6990E-16  0.7010E-16
  0.1000E+17  0.1080E-16  0.9470E-17  0.8190E-17  0.7210E-17  0.6860E-17  0.6780E-17  0.6790E-17  0.6800E-17  0.6810E-17  0.6820E-17  0.6840E-17  0.6850E-17  0.6850E-17  0.6860E-17
WAVELENGTH(A)= 
  4180.300
 7 14 t 
excit   
     9.930     14.900     24.800     49.600     99.300    248.000    496.000    744.000    993.000   1490.000   2480.000   4960.000   9930.000  14900.000 
  0.1000E+11  0.5720E-11  0.6920E-11  0.8150E-11  0.9800E-11  0.1420E-10  0.2210E-10  0.2580E-10  0.2690E-10  0.2730E-10  0.2730E-10  0.2670E-10  0.2480E-10  0.2210E-10  0.2040E-10
  0.1000E+12  0.6520E-11  0.7790E-11  0.9090E-11  0.1070E-10  0.1440E-10  0.2040E-10  0.2300E-10  0.2380E-10  0.2400E-10  0.2410E-10  0.2360E-10  0.2220E-10  0.2020E-10  0.1880E-10
  0.1000E+13  0.3810E-11  0.3970E-11  0.4070E-11  0.4180E-11  0.4420E-11  0.4660E-11  0.4810E-11  0.4900E-11  0.4970E-11  0.5070E-11  0.5200E-11  0.5370E-11  0.5520E-11  0.5590E-11
  0.1000E+14  0.2530E-12  0.2080E-12  0.1720E-12  0.1450E-12  0.1230E-12  0.1070E-12  0.1060E-12  0.1070E-12  0.1100E-12  0.1140E-12  0.1210E-12  0.1340E-12  0.1520E-12  0.1650E-12
  0.1000E+15  0.9920E-14  0.7190E-14  0.5360E-14  0.4210E-14  0.3700E-14  0.3480E-14  0.3480E-14  0.3510E-14  0.3530E-14  0.3580E-14  0.3640E-14  0.3760E-14  0.3920E-14  0.4030E-14
  0.1000E+16  0.8060E-15  0.5750E-15  0.4230E-15  0.3300E-15  0.2980E-15  0.2890E-15  0.2900E-15  0.2920E-15  0.2930E-15  0.2950E-15  0.2960E-15  0.2980E-15  0.3010E-15  0.3020E-15
  0.1000E+17  0.7880E-16  0.5610E-16  0.4120E-16  0.3210E-16  0.2910E-16  0.2840E-16  0.2850E-16  0.2860E-16  0.2870E-16  0.2880E-16  0.2900E-16  0.2910E-16  0.2920E-16  0.2920E-16
WAVELENGTH(A)= 
  4219.690
 7 14 t 
excit   
     9.930     14.900     24.800     49.600     99.300    248.000    496.000    744.000    993.000   1490.000   2480.000   4960.000   9930.000  14900.000 
  0.1000E+11  0.1950E-10  0.2230E-10  0.2520E-10  0.2830E-10  0.3300E-10  0.3970E-10  0.4180E-10  0.4190E-10  0.4160E-10  0.4080E-10  0.3910E-10  0.3580E-10  0.3180E-10  0.2930E-10
  0.1000E+12  0.1180E-10  0.1290E-10  0.1390E-10  0.1490E-10  0.1630E-10  0.1800E-10  0.1860E-10  0.1870E-10  0.1880E-10  0.1870E-10  0.1850E-10  0.1790E-10  0.1700E-10  0.1630E-10
  0.1000E+13  0.1700E-11  0.1640E-11  0.1580E-11  0.1530E-11  0.1470E-11  0.1420E-11  0.1430E-11  0.1460E-11  0.1480E-11  0.1520E-11  0.1580E-11  0.1690E-11  0.1800E-11  0.1880E-11
  0.1000E+14  0.5780E-13  0.4650E-13  0.3790E-13  0.3150E-13  0.2640E-13  0.2260E-13  0.2230E-13  0.2280E-13  0.2330E-13  0.2420E-13  0.2590E-13  0.2900E-13  0.3340E-13  0.3670E-13
  0.1000E+15  0.1960E-14  0.1420E-14  0.1050E-14  0.8240E-15  0.7220E-15  0.6780E-15  0.6780E-15  0.6830E-15  0.6890E-15  0.6980E-15  0.7120E-15  0.7360E-15  0.7690E-15  0.7940E-15
  0.1000E+16  0.1560E-15  0.1110E-15  0.8160E-16  0.6360E-16  0.5740E-16  0.5570E-16  0.5590E-16  0.5620E-16  0.5640E-16  0.5670E-16  0.5710E-16  0.5750E-16  0.5790E-16  0.5820E-16
  0.1000E+17  0.1520E-16  0.1080E-16  0.7930E-17  0.6190E-17  0.5600E-17  0.5460E-17  0.5470E-17  0.5500E-17  0.5520E-17  0.5540E-17  0.5570E-17  0.5600E-17  0.5610E-17  0.5620E-17
WAVELENGTH(A)= 
  4295.020
 7 14 t 
excit   
     9.930     14.900     24.800     49.600     99.300    248.000    496.000    744.000    993.000   1490.000   2480.000   4960.000   9930.000  14900.000 
  0.1000E+11  0.5380E-12  0.6790E-12  0.8260E-12  0.1030E-11  0.1550E-11  0.2500E-11  0.2940E-11  0.3080E-11  0.3130E-11  0.3140E-11  0.3070E-11  0.2850E-11  0.2540E-11  0.2340E-11
  0.1000E+12  0.6620E-12  0.8360E-12  0.1020E-11  0.1250E-11  0.1790E-11  0.2730E-11  0.3140E-11  0.3250E-11  0.3280E-11  0.3270E-11  0.3180E-11  0.2940E-11  0.2610E-11  0.2390E-11
  0.1000E+13  0.7130E-12  0.8460E-12  0.9690E-12  0.1110E-11  0.1400E-11  0.1810E-11  0.1970E-11  0.2020E-11  0.2040E-11  0.2050E-11  0.2040E-11  0.1970E-11  0.1850E-11  0.1760E-11
  0.1000E+14  0.1960E-12  0.1820E-12  0.1670E-12  0.1540E-12  0.1490E-12  0.1460E-12  0.1490E-12  0.1530E-12  0.1560E-12  0.1610E-12  0.1680E-12  0.1800E-12  0.1950E-12  0.2050E-12
  0.1000E+15  0.1450E-13  0.1160E-13  0.9350E-14  0.7810E-14  0.7160E-14  0.6940E-14  0.6980E-14  0.7040E-14  0.7090E-14  0.7170E-14  0.7300E-14  0.7500E-14  0.7740E-14  0.7920E-14
  0.1000E+16  0.1320E-14  0.1040E-14  0.8220E-15  0.6780E-15  0.6230E-15  0.6080E-15  0.6110E-15  0.6140E-15  0.6160E-15  0.6190E-15  0.6230E-15  0.6280E-15  0.6320E-15  0.6340E-15
  0.1000E+17  0.1300E-15  0.1020E-15  0.8100E-16  0.6670E-16  0.6140E-16  0.6000E-16  0.6020E-16  0.6050E-16  0.6070E-16  0.6090E-16  0.6130E-16  0.6160E-16  0.6170E-16  0.6180E-16
WAVELENGTH(A)= 
  4336.610
 7 14 t 
excit   
     9.930     14.900     24.800     49.600     99.300    248.000    496.000    744.000    993.000   1490.000   2480.000   4960.000   9930.000  14900.000 
  0.1000E+11  0.3490E-12  0.4410E-12  0.5360E-12  0.6670E-12  0.1010E-11  0.1620E-11  0.1910E-11  0.2000E-11  0.2030E-11  0.2040E-11  0.2000E-11  0.1850E-11  0.1650E-11  0.1520E-11
  0.1000E+12  0.4300E-12  0.5430E-12  0.6610E-12  0.8110E-12  0.1170E-11  0.1770E-11  0.2040E-11  0.2110E-11  0.2130E-11  0.2120E-11  0.2070E-11  0.1910E-11  0.1700E-11  0.1560E-11
  0.1000E+13  0.4630E-12  0.5490E-12  0.6300E-12  0.7230E-12  0.9120E-12  0.1180E-11  0.1280E-11  0.1310E-11  0.1330E-11  0.1330E-11  0.1320E-11  0.1280E-11  0.1200E-11  0.1150E-11
  0.1000E+14  0.1270E-12  0.1180E-12  0.1080E-12  0.1000E-12  0.9680E-13  0.9500E-13  0.9700E-13  0.9920E-13  0.1010E-12  0.1040E-12  0.1090E-12  0.1170E-12  0.1270E-12  0.1330E-12
  0.1000E+15  0.9410E-14  0.7530E-14  0.6080E-14  0.5070E-14  0.4650E-14  0.4510E-14  0.4530E-14  0.4570E-14  0.4610E-14  0.4660E-14  0.4740E-14  0.4870E-14  0.5030E-14  0.5150E-14
  0.1000E+16  0.8560E-15  0.6730E-15  0.5340E-15  0.4400E-15  0.4050E-15  0.3950E-15  0.3970E-15  0.3990E-15  0.4000E-15  0.4020E-15  0.4050E-15  0.4080E-15  0.4100E-15  0.4120E-15
  0.1000E+17  0.8470E-16  0.6640E-16  0.5260E-16  0.4330E-16  0.3990E-16  0.3900E-16  0.3910E-16  0.3930E-16  0.3940E-16  0.3960E-16  0.3980E-16  0.4000E-16  0.4010E-16  0.4020E-16
WAVELENGTH(A)= 
  4402.920
 7 14 t 
excit   
     9.930     14.900     24.800     49.600     99.300    248.000    496.000    744.000    993.000   1490.000   2480.000   4960.000   9930.000  14900.000 
  0.1000E+11  0.6760E-12  0.8950E-12  0.1120E-11  0.1370E-11  0.1840E-11  0.2620E-11  0.2940E-11  0.3020E-11  0.3030E-11  0.3000E-11  0.2900E-11  0.2660E-11  0.2350E-11  0.2150E-11
  0.1000E+12  0.9630E-12  0.1230E-11  0.1510E-11  0.1810E-11  0.2300E-11  0.3040E-11  0.3290E-11  0.3330E-11  0.3320E-11  0.3260E-11  0.3130E-11  0.2850E-11  0.2510E-11  0.2290E-11
  0.1000E+13  0.8280E-12  0.9120E-12  0.9790E-12  0.1030E-11  0.1080E-11  0.1120E-11  0.1130E-11  0.1130E-11  0.1140E-11  0.1140E-11  0.1150E-11  0.1150E-11  0.1140E-11  0.1120E-11
  0.1000E+14  0.7890E-13  0.6770E-13  0.5790E-13  0.4970E-13  0.4170E-13  0.3540E-13  0.3460E-13  0.3490E-13  0.3530E-13  0.3640E-13  0.3810E-13  0.4150E-13  0.4610E-13  0.4950E-13
  0.1000E+15  0.3380E-14  0.2540E-14  0.1950E-14  0.1560E-14  0.1370E-14  0.1290E-14  0.1280E-14  0.1290E-14  0.1300E-14  0.1310E-14  0.1330E-14  0.1370E-14  0.1410E-14  0.1450E-14
  0.1000E+16  0.2760E-15  0.2040E-15  0.1540E-15  0.1230E-15  0.1120E-15  0.1090E-15  0.1090E-15  0.1100E-15  0.1100E-15  0.1100E-15  0.1110E-15  0.1120E-15  0.1120E-15  0.1130E-15
  0.1000E+17  0.2700E-16  0.1990E-16  0.1500E-16  0.1200E-16  0.1090E-16  0.1070E-16  0.1070E-16  0.1080E-16  0.1080E-16  0.1080E-16  0.1090E-16  0.1090E-16  0.1090E-16  0.1100E-16
WAVELENGTH(A)= 
  6905.460
 7 14 t 
excit   
     9.930     14.900     24.800     49.600     99.300    248.000    496.000    744.000    993.000   1490.000   2480.000   4960.000   9930.000  14900.000 
  0.1000E+11  0.2870E-12  0.3470E-12  0.4090E-12  0.4920E-12  0.7100E-12  0.1110E-11  0.1290E-11  0.1350E-11  0.1370E-11  0.1370E-11  0.1340E-11  0.1250E-11  0.1110E-11  0.1020E-11
  0.1000E+12  0.3270E-12  0.3910E-12  0.4560E-12  0.5370E-12  0.7230E-12  0.1030E-11  0.1160E-11  0.1190E-11  0.1210E-11  0.1210E-11  0.1190E-11  0.1120E-11  0.1010E-11  0.9420E-12
  0.1000E+13  0.1910E-12  0.1990E-12  0.2040E-12  0.2100E-12  0.2220E-12  0.2340E-12  0.2410E-12  0.2460E-12  0.2490E-12  0.2540E-12  0.2610E-12  0.2700E-12  0.2770E-12  0.2810E-12
  0.1000E+14  0.1270E-13  0.1040E-13  0.8620E-14  0.7280E-14  0.6180E-14  0.5360E-14  0.5300E-14  0.5390E-14  0.5500E-14  0.5710E-14  0.6050E-14  0.6710E-14  0.7620E-14  0.8300E-14
  0.1000E+15  0.4980E-15  0.3610E-15  0.2690E-15  0.2110E-15  0.1860E-15  0.1750E-15  0.1750E-15  0.1760E-15  0.1770E-15  0.1800E-15  0.1830E-15  0.1890E-15  0.1970E-15  0.2020E-15
  0.1000E+16  0.4050E-16  0.2890E-16  0.2120E-16  0.1660E-16  0.1500E-16  0.1450E-16  0.1460E-16  0.1460E-16  0.1470E-16  0.1480E-16  0.1490E-16  0.1500E-16  0.1510E-16  0.1520E-16
  0.1000E+17  0.3950E-17  0.2820E-17  0.2070E-17  0.1610E-17  0.1460E-17  0.1420E-17  0.1430E-17  0.1440E-17  0.1440E-17  0.1450E-17  0.1450E-17  0.1460E-17  0.1470E-17  0.1470E-17
WAVELENGTH(A)= 
  9912.570
 7 14 t 
excit   
     9.930     14.900     24.800     49.600     99.300    248.000    496.000    744.000    993.000   1490.000   2480.000   4960.000   9930.000  14900.000 
  0.1000E+11  0.9950E-12  0.1220E-11  0.1450E-11  0.1660E-11  0.1770E-11  0.1730E-11  0.1570E-11  0.1450E-11  0.1360E-11  0.1240E-11  0.1090E-11  0.9030E-12  0.7370E-12  0.6480E-12
  0.1000E+12  0.1060E-11  0.1290E-11  0.1520E-11  0.1720E-11  0.1830E-11  0.1800E-11  0.1640E-11  0.1530E-11  0.1440E-11  0.1320E-11  0.1180E-11  0.9900E-12  0.8190E-12  0.7250E-12
  0.1000E+13  0.4070E-12  0.4570E-12  0.4940E-12  0.5150E-12  0.5040E-12  0.4590E-12  0.4260E-12  0.4090E-12  0.3980E-12  0.3840E-12  0.3670E-12  0.3470E-12  0.3280E-12  0.3170E-12
  0.1000E+14  0.2520E-13  0.2430E-13  0.2280E-13  0.2100E-13  0.1830E-13  0.1580E-13  0.1530E-13  0.1530E-13  0.1530E-13  0.1550E-13  0.1600E-13  0.1690E-13  0.1810E-13  0.1900E-13
  0.1000E+15  0.1120E-14  0.9860E-15  0.8600E-15  0.7580E-15  0.7010E-15  0.6720E-15  0.6690E-15  0.6710E-15  0.6740E-15  0.6780E-15  0.6850E-15  0.6990E-15  0.7170E-15  0.7310E-15
  0.1000E+16  0.9400E-16  0.8240E-16  0.7130E-16  0.6280E-16  0.5950E-16  0.5860E-16  0.5870E-16  0.5880E-16  0.5890E-16  0.5910E-16  0.5920E-16  0.5940E-16  0.5970E-16  0.5980E-16
  0.1000E+17  0.9220E-17  0.8070E-17  0.6990E-17  0.6150E-17  0.5850E-17  0.5780E-17  0.5790E-17  0.5800E-17  0.5810E-17  0.5820E-17  0.5830E-17  0.5840E-17  0.5850E-17  0.5850E-17
