 50  7 14
WAVELENGTH(A)= 
     5.227
 7 14 t 
excit   
    44.800     67.200    112.000    224.000    448.000   1120.000   2240.000   3360.000   4480.000   6720.000  11200.000  22400.000  44800.000  67200.000 
  0.1000E+11  0.5850E-33  0.2120E-25  0.2150E-19  0.5940E-15  0.8410E-13  0.1340E-11  0.3040E-11  0.3880E-11  0.4330E-11  0.4780E-11  0.5090E-11  0.5150E-11  0.4890E-11  0.4630E-11
  0.1000E+12  0.5430E-33  0.1980E-25  0.2040E-19  0.5710E-15  0.8140E-13  0.1300E-11  0.2950E-11  0.3760E-11  0.4200E-11  0.4630E-11  0.4930E-11  0.4980E-11  0.4720E-11  0.4470E-11
  0.1000E+13  0.5290E-33  0.1930E-25  0.2000E-19  0.5630E-15  0.8040E-13  0.1290E-11  0.2900E-11  0.3700E-11  0.4130E-11  0.4540E-11  0.4830E-11  0.4870E-11  0.4610E-11  0.4360E-11
  0.1000E+14  0.5240E-33  0.1910E-25  0.1980E-19  0.5590E-15  0.7990E-13  0.1280E-11  0.2880E-11  0.3670E-11  0.4090E-11  0.4500E-11  0.4780E-11  0.4810E-11  0.4550E-11  0.4300E-11
  0.1000E+15  0.5220E-33  0.1900E-25  0.1960E-19  0.5550E-15  0.7940E-13  0.1270E-11  0.2850E-11  0.3620E-11  0.4040E-11  0.4440E-11  0.4710E-11  0.4750E-11  0.4490E-11  0.4250E-11
  0.1000E+16  0.5180E-33  0.1880E-25  0.1930E-19  0.5430E-15  0.7720E-13  0.1220E-11  0.2700E-11  0.3430E-11  0.3810E-11  0.4180E-11  0.4440E-11  0.4470E-11  0.4240E-11  0.4020E-11
  0.1000E+17  0.5080E-33  0.1810E-25  0.1830E-19  0.4960E-15  0.6770E-13  0.1000E-11  0.2130E-11  0.2650E-11  0.2920E-11  0.3190E-11  0.3390E-11  0.3450E-11  0.3320E-11  0.3180E-11
WAVELENGTH(A)= 
     5.230
 7 14 t 
excit   
    44.800     67.200    112.000    224.000    448.000   1120.000   2240.000   3360.000   4480.000   6720.000  11200.000  22400.000  44800.000  67200.000 
  0.1000E+11  0.2100E-33  0.8360E-26  0.9100E-20  0.2590E-15  0.3700E-13  0.5860E-12  0.1300E-11  0.1630E-11  0.1810E-11  0.1970E-11  0.2070E-11  0.2060E-11  0.1920E-11  0.1800E-11
  0.1000E+12  0.2420E-33  0.9280E-26  0.9540E-20  0.2590E-15  0.3670E-13  0.5790E-12  0.1280E-11  0.1610E-11  0.1780E-11  0.1940E-11  0.2040E-11  0.2040E-11  0.1900E-11  0.1790E-11
  0.1000E+13  0.2410E-33  0.9190E-26  0.9420E-20  0.2570E-15  0.3630E-13  0.5720E-12  0.1260E-11  0.1580E-11  0.1750E-11  0.1910E-11  0.2010E-11  0.1990E-11  0.1860E-11  0.1750E-11
  0.1000E+14  0.2390E-33  0.9100E-26  0.9320E-20  0.2540E-15  0.3610E-13  0.5680E-12  0.1250E-11  0.1570E-11  0.1730E-11  0.1890E-11  0.1980E-11  0.1970E-11  0.1840E-11  0.1720E-11
  0.1000E+15  0.2370E-33  0.9010E-26  0.9230E-20  0.2530E-15  0.3580E-13  0.5630E-12  0.1240E-11  0.1550E-11  0.1720E-11  0.1870E-11  0.1970E-11  0.1950E-11  0.1820E-11  0.1710E-11
  0.1000E+16  0.2360E-33  0.8910E-26  0.9100E-20  0.2470E-15  0.3470E-13  0.5390E-12  0.1180E-11  0.1480E-11  0.1630E-11  0.1780E-11  0.1870E-11  0.1870E-11  0.1750E-11  0.1650E-11
  0.1000E+17  0.2310E-33  0.8540E-26  0.8480E-20  0.2200E-15  0.2960E-13  0.4350E-12  0.9140E-12  0.1130E-11  0.1240E-11  0.1350E-11  0.1420E-11  0.1440E-11  0.1370E-11  0.1310E-11
WAVELENGTH(A)= 
     5.232
 7 14 t 
excit   
    44.800     67.200    112.000    224.000    448.000   1120.000   2240.000   3360.000   4480.000   6720.000  11200.000  22400.000  44800.000  67200.000 
  0.1000E+11  0.1330E-32  0.4770E-25  0.4810E-19  0.1310E-14  0.1850E-12  0.2940E-11  0.6640E-11  0.8460E-11  0.9450E-11  0.1040E-10  0.1110E-10  0.1120E-10  0.1070E-10  0.1010E-10
  0.1000E+12  0.1240E-32  0.4450E-25  0.4550E-19  0.1260E-14  0.1790E-12  0.2860E-11  0.6440E-11  0.8200E-11  0.9160E-11  0.1010E-10  0.1080E-10  0.1090E-10  0.1030E-10  0.9760E-11
  0.1000E+13  0.1200E-32  0.4330E-25  0.4460E-19  0.1240E-14  0.1760E-12  0.2820E-11  0.6340E-11  0.8070E-11  0.9000E-11  0.9920E-11  0.1060E-10  0.1060E-10  0.1010E-10  0.9530E-11
  0.1000E+14  0.1190E-32  0.4290E-25  0.4410E-19  0.1230E-14  0.1750E-12  0.2800E-11  0.6290E-11  0.8000E-11  0.8920E-11  0.9830E-11  0.1050E-10  0.1050E-10  0.9940E-11  0.9390E-11
  0.1000E+15  0.1190E-32  0.4260E-25  0.4380E-19  0.1220E-14  0.1740E-12  0.2770E-11  0.6220E-11  0.7890E-11  0.8800E-11  0.9680E-11  0.1030E-10  0.1040E-10  0.9800E-11  0.9260E-11
  0.1000E+16  0.1180E-32  0.4210E-25  0.4300E-19  0.1190E-14  0.1690E-12  0.2650E-11  0.5880E-11  0.7420E-11  0.8250E-11  0.9070E-11  0.9640E-11  0.9710E-11  0.9220E-11  0.8730E-11
  0.1000E+17  0.1150E-32  0.4020E-25  0.4030E-19  0.1080E-14  0.1450E-12  0.2120E-11  0.4450E-11  0.5510E-11  0.6070E-11  0.6630E-11  0.7050E-11  0.7190E-11  0.6960E-11  0.6680E-11
WAVELENGTH(A)= 
     5.234
 7 14 t 
excit   
    44.800     67.200    112.000    224.000    448.000   1120.000   2240.000   3360.000   4480.000   6720.000  11200.000  22400.000  44800.000  67200.000 
  0.1000E+11  0.2120E-34  0.1030E-26  0.2050E-20  0.1380E-15  0.2850E-13  0.5120E-12  0.1120E-11  0.1370E-11  0.1480E-11  0.1530E-11  0.1490E-11  0.1320E-11  0.1060E-11  0.9120E-12
  0.1000E+12  0.1340E-33  0.6050E-26  0.9340E-20  0.3710E-15  0.5880E-13  0.9600E-12  0.2120E-11  0.2640E-11  0.2900E-11  0.3110E-11  0.3200E-11  0.3090E-11  0.2750E-11  0.2520E-11
  0.1000E+13  0.3030E-33  0.1260E-25  0.1470E-19  0.4450E-15  0.6540E-13  0.1040E-11  0.2300E-11  0.2870E-11  0.3170E-11  0.3430E-11  0.3570E-11  0.3530E-11  0.3230E-11  0.3020E-11
  0.1000E+14  0.3450E-33  0.1400E-25  0.1550E-19  0.4510E-15  0.6570E-13  0.1050E-11  0.2310E-11  0.2880E-11  0.3180E-11  0.3440E-11  0.3580E-11  0.3540E-11  0.3260E-11  0.3050E-11
  0.1000E+15  0.3480E-33  0.1410E-25  0.1540E-19  0.4490E-15  0.6540E-13  0.1040E-11  0.2290E-11  0.2860E-11  0.3160E-11  0.3410E-11  0.3560E-11  0.3520E-11  0.3240E-11  0.3040E-11
  0.1000E+16  0.3460E-33  0.1390E-25  0.1520E-19  0.4380E-15  0.6310E-13  0.9930E-12  0.2170E-11  0.2700E-11  0.2980E-11  0.3230E-11  0.3380E-11  0.3360E-11  0.3110E-11  0.2920E-11
  0.1000E+17  0.3340E-33  0.1320E-25  0.1400E-19  0.3840E-15  0.5300E-13  0.7850E-12  0.1640E-11  0.2020E-11  0.2220E-11  0.2390E-11  0.2510E-11  0.2530E-11  0.2390E-11  0.2280E-11
WAVELENGTH(A)= 
     5.234
 7 14 t 
excit   
    44.800     67.200    112.000    224.000    448.000   1120.000   2240.000   3360.000   4480.000   6720.000  11200.000  22400.000  44800.000  67200.000 
  0.1000E+11  0.6410E-33  0.2510E-25  0.2710E-19  0.7630E-15  0.1090E-12  0.1720E-11  0.3800E-11  0.4780E-11  0.5300E-11  0.5770E-11  0.6050E-11  0.6030E-11  0.5610E-11  0.5270E-11
  0.1000E+12  0.7370E-33  0.2790E-25  0.2840E-19  0.7640E-15  0.1080E-12  0.1700E-11  0.3740E-11  0.4710E-11  0.5220E-11  0.5690E-11  0.5970E-11  0.5950E-11  0.5560E-11  0.5230E-11
  0.1000E+13  0.7340E-33  0.2760E-25  0.2800E-19  0.7560E-15  0.1070E-12  0.1680E-11  0.3690E-11  0.4630E-11  0.5130E-11  0.5590E-11  0.5860E-11  0.5830E-11  0.5440E-11  0.5120E-11
  0.1000E+14  0.7280E-33  0.2730E-25  0.2770E-19  0.7490E-15  0.1060E-12  0.1660E-11  0.3660E-11  0.4590E-11  0.5080E-11  0.5530E-11  0.5790E-11  0.5760E-11  0.5360E-11  0.5040E-11
  0.1000E+15  0.7220E-33  0.2700E-25  0.2740E-19  0.7430E-15  0.1050E-12  0.1650E-11  0.3630E-11  0.4550E-11  0.5040E-11  0.5480E-11  0.5740E-11  0.5710E-11  0.5320E-11  0.5000E-11
  0.1000E+16  0.7150E-33  0.2670E-25  0.2700E-19  0.7250E-15  0.1010E-12  0.1570E-11  0.3430E-11  0.4290E-11  0.4750E-11  0.5180E-11  0.5430E-11  0.5430E-11  0.5090E-11  0.4800E-11
  0.1000E+17  0.6880E-33  0.2510E-25  0.2470E-19  0.6350E-15  0.8510E-13  0.1240E-11  0.2590E-11  0.3190E-11  0.3510E-11  0.3810E-11  0.4010E-11  0.4060E-11  0.3890E-11  0.3720E-11
WAVELENGTH(A)= 
     5.235
 7 14 t 
excit   
    44.800     67.200    112.000    224.000    448.000   1120.000   2240.000   3360.000   4480.000   6720.000  11200.000  22400.000  44800.000  67200.000 
  0.1000E+11  0.4910E-33  0.1910E-25  0.2050E-19  0.5770E-15  0.8180E-13  0.1290E-11  0.2860E-11  0.3600E-11  0.4000E-11  0.4360E-11  0.4580E-11  0.4550E-11  0.4240E-11  0.3990E-11
  0.1000E+12  0.5600E-33  0.2110E-25  0.2140E-19  0.5770E-15  0.8110E-13  0.1280E-11  0.2820E-11  0.3550E-11  0.3940E-11  0.4290E-11  0.4510E-11  0.4490E-11  0.4190E-11  0.3960E-11
  0.1000E+13  0.5570E-33  0.2080E-25  0.2110E-19  0.5700E-15  0.8020E-13  0.1260E-11  0.2770E-11  0.3490E-11  0.3870E-11  0.4220E-11  0.4420E-11  0.4400E-11  0.4100E-11  0.3870E-11
  0.1000E+14  0.5520E-33  0.2060E-25  0.2090E-19  0.5650E-15  0.7960E-13  0.1250E-11  0.2750E-11  0.3460E-11  0.3830E-11  0.4170E-11  0.4370E-11  0.4340E-11  0.4050E-11  0.3810E-11
  0.1000E+15  0.5480E-33  0.2040E-25  0.2070E-19  0.5610E-15  0.7910E-13  0.1240E-11  0.2730E-11  0.3430E-11  0.3800E-11  0.4140E-11  0.4340E-11  0.4310E-11  0.4010E-11  0.3780E-11
  0.1000E+16  0.5450E-33  0.2020E-25  0.2040E-19  0.5480E-15  0.7650E-13  0.1190E-11  0.2590E-11  0.3250E-11  0.3600E-11  0.3920E-11  0.4120E-11  0.4110E-11  0.3850E-11  0.3640E-11
  0.1000E+17  0.5300E-33  0.1920E-25  0.1880E-19  0.4840E-15  0.6480E-13  0.9480E-12  0.1980E-11  0.2450E-11  0.2700E-11  0.2940E-11  0.3090E-11  0.3120E-11  0.2980E-11  0.2860E-11
WAVELENGTH(A)= 
     5.235
 7 14 t 
excit   
    44.800     67.200    112.000    224.000    448.000   1120.000   2240.000   3360.000   4480.000   6720.000  11200.000  22400.000  44800.000  67200.000 
  0.1000E+11  0.3770E-33  0.1330E-25  0.1330E-19  0.3590E-15  0.5030E-13  0.8040E-12  0.1810E-11  0.2310E-11  0.2570E-11  0.2840E-11  0.3040E-11  0.3050E-11  0.2900E-11  0.2750E-11
  0.1000E+12  0.3500E-33  0.1250E-25  0.1260E-19  0.3450E-15  0.4870E-13  0.7800E-12  0.1760E-11  0.2240E-11  0.2500E-11  0.2750E-11  0.2940E-11  0.2950E-11  0.2800E-11  0.2660E-11
  0.1000E+13  0.3410E-33  0.1210E-25  0.1230E-19  0.3400E-15  0.4810E-13  0.7690E-12  0.1730E-11  0.2200E-11  0.2450E-11  0.2700E-11  0.2880E-11  0.2880E-11  0.2730E-11  0.2590E-11
  0.1000E+14  0.3370E-33  0.1200E-25  0.1220E-19  0.3380E-15  0.4780E-13  0.7640E-12  0.1720E-11  0.2180E-11  0.2430E-11  0.2680E-11  0.2850E-11  0.2850E-11  0.2690E-11  0.2550E-11
  0.1000E+15  0.3350E-33  0.1190E-25  0.1210E-19  0.3350E-15  0.4750E-13  0.7570E-12  0.1700E-11  0.2150E-11  0.2390E-11  0.2640E-11  0.2810E-11  0.2810E-11  0.2660E-11  0.2520E-11
  0.1000E+16  0.3330E-33  0.1180E-25  0.1190E-19  0.3280E-15  0.4610E-13  0.7250E-12  0.1610E-11  0.2030E-11  0.2250E-11  0.2470E-11  0.2630E-11  0.2640E-11  0.2500E-11  0.2380E-11
  0.1000E+17  0.3250E-33  0.1130E-25  0.1120E-19  0.2970E-15  0.4010E-13  0.5910E-12  0.1240E-11  0.1540E-11  0.1700E-11  0.1850E-11  0.1970E-11  0.1990E-11  0.1920E-11  0.1850E-11
WAVELENGTH(A)= 
     5.237
 7 14 t 
excit   
    44.800     67.200    112.000    224.000    448.000   1120.000   2240.000   3360.000   4480.000   6720.000  11200.000  22400.000  44800.000  67200.000 
  0.1000E+11  0.1100E-32  0.3880E-25  0.3830E-19  0.1040E-14  0.1450E-12  0.2310E-11  0.5200E-11  0.6610E-11  0.7410E-11  0.8170E-11  0.8680E-11  0.8760E-11  0.8320E-11  0.7880E-11
  0.1000E+12  0.1030E-32  0.3630E-25  0.3630E-19  0.9960E-15  0.1400E-12  0.2250E-11  0.5050E-11  0.6410E-11  0.7180E-11  0.7920E-11  0.8400E-11  0.8470E-11  0.8030E-11  0.7600E-11
  0.1000E+13  0.9990E-33  0.3530E-25  0.3550E-19  0.9810E-15  0.1390E-12  0.2220E-11  0.4970E-11  0.6300E-11  0.7050E-11  0.7760E-11  0.8230E-11  0.8280E-11  0.7840E-11  0.7420E-11
  0.1000E+14  0.9890E-33  0.3490E-25  0.3520E-19  0.9730E-15  0.1380E-12  0.2200E-11  0.4930E-11  0.6250E-11  0.6990E-11  0.7690E-11  0.8140E-11  0.8180E-11  0.7730E-11  0.7310E-11
  0.1000E+15  0.9840E-33  0.3470E-25  0.3490E-19  0.9670E-15  0.1370E-12  0.2180E-11  0.4870E-11  0.6160E-11  0.6890E-11  0.7580E-11  0.8020E-11  0.8060E-11  0.7630E-11  0.7210E-11
  0.1000E+16  0.9750E-33  0.3420E-25  0.3430E-19  0.9430E-15  0.1320E-12  0.2080E-11  0.4590E-11  0.5790E-11  0.6450E-11  0.7080E-11  0.7490E-11  0.7540E-11  0.7160E-11  0.6790E-11
  0.1000E+17  0.9450E-33  0.3260E-25  0.3200E-19  0.8450E-15  0.1130E-12  0.1650E-11  0.3450E-11  0.4250E-11  0.4700E-11  0.5120E-11  0.5430E-11  0.5520E-11  0.5350E-11  0.5140E-11
WAVELENGTH(A)= 
     5.239
 7 14 t 
excit   
    44.800     67.200    112.000    224.000    448.000   1120.000   2240.000   3360.000   4480.000   6720.000  11200.000  22400.000  44800.000  67200.000 
  0.1000E+11  0.1780E-33  0.6860E-26  0.7290E-20  0.2040E-15  0.2880E-13  0.4530E-12  0.1000E-11  0.1260E-11  0.1400E-11  0.1520E-11  0.1600E-11  0.1590E-11  0.1480E-11  0.1390E-11
  0.1000E+12  0.2050E-33  0.7630E-26  0.7660E-20  0.2040E-15  0.2860E-13  0.4490E-12  0.9920E-12  0.1240E-11  0.1380E-11  0.1500E-11  0.1580E-11  0.1570E-11  0.1470E-11  0.1390E-11
  0.1000E+13  0.2050E-33  0.7570E-26  0.7580E-20  0.2020E-15  0.2840E-13  0.4440E-12  0.9780E-12  0.1230E-11  0.1360E-11  0.1480E-11  0.1550E-11  0.1540E-11  0.1440E-11  0.1360E-11
  0.1000E+14  0.2040E-33  0.7530E-26  0.7530E-20  0.2010E-15  0.2820E-13  0.4420E-12  0.9730E-12  0.1220E-11  0.1350E-11  0.1470E-11  0.1540E-11  0.1530E-11  0.1430E-11  0.1340E-11
  0.1000E+15  0.2080E-33  0.7630E-26  0.7570E-20  0.2010E-15  0.2820E-13  0.4400E-12  0.9680E-12  0.1210E-11  0.1340E-11  0.1460E-11  0.1530E-11  0.1520E-11  0.1420E-11  0.1340E-11
  0.1000E+16  0.2130E-33  0.7710E-26  0.7530E-20  0.1970E-15  0.2730E-13  0.4200E-12  0.9190E-12  0.1150E-11  0.1270E-11  0.1380E-11  0.1460E-11  0.1450E-11  0.1360E-11  0.1290E-11
  0.1000E+17  0.2080E-33  0.7360E-26  0.6970E-20  0.1740E-15  0.2310E-13  0.3370E-12  0.7070E-12  0.8710E-12  0.9580E-12  0.1040E-11  0.1100E-11  0.1110E-11  0.1060E-11  0.1010E-11
WAVELENGTH(A)= 
     5.243
 7 14 t 
excit   
    44.800     67.200    112.000    224.000    448.000   1120.000   2240.000   3360.000   4480.000   6720.000  11200.000  22400.000  44800.000  67200.000 
  0.1000E+11  0.2050E-33  0.7090E-26  0.6930E-20  0.1850E-15  0.2570E-13  0.4080E-12  0.9180E-12  0.1170E-11  0.1300E-11  0.1440E-11  0.1530E-11  0.1540E-11  0.1460E-11  0.1390E-11
  0.1000E+12  0.1920E-33  0.6680E-26  0.6600E-20  0.1780E-15  0.2490E-13  0.3960E-12  0.8910E-12  0.1130E-11  0.1260E-11  0.1390E-11  0.1480E-11  0.1490E-11  0.1410E-11  0.1340E-11
  0.1000E+13  0.1870E-33  0.6500E-26  0.6460E-20  0.1760E-15  0.2460E-13  0.3910E-12  0.8770E-12  0.1110E-11  0.1240E-11  0.1370E-11  0.1450E-11  0.1460E-11  0.1380E-11  0.1310E-11
  0.1000E+14  0.1850E-33  0.6430E-26  0.6390E-20  0.1740E-15  0.2440E-13  0.3880E-12  0.8700E-12  0.1100E-11  0.1230E-11  0.1350E-11  0.1430E-11  0.1440E-11  0.1360E-11  0.1290E-11
  0.1000E+15  0.1840E-33  0.6390E-26  0.6340E-20  0.1730E-15  0.2420E-13  0.3850E-12  0.8600E-12  0.1090E-11  0.1210E-11  0.1330E-11  0.1410E-11  0.1420E-11  0.1340E-11  0.1270E-11
  0.1000E+16  0.1830E-33  0.6310E-26  0.6240E-20  0.1690E-15  0.2360E-13  0.3690E-12  0.8150E-12  0.1030E-11  0.1140E-11  0.1250E-11  0.1330E-11  0.1330E-11  0.1260E-11  0.1200E-11
  0.1000E+17  0.1790E-33  0.6070E-26  0.5890E-20  0.1540E-15  0.2060E-13  0.3020E-12  0.6360E-12  0.7870E-12  0.8660E-12  0.9470E-12  0.1000E-11  0.1020E-11  0.9790E-12  0.9400E-12
WAVELENGTH(A)= 
     5.243
 7 14 t 
excit   
    44.800     67.200    112.000    224.000    448.000   1120.000   2240.000   3360.000   4480.000   6720.000  11200.000  22400.000  44800.000  67200.000 
  0.1000E+11  0.1030E-32  0.3550E-25  0.3450E-19  0.9210E-15  0.1280E-12  0.2030E-11  0.4570E-11  0.5820E-11  0.6490E-11  0.7190E-11  0.7640E-11  0.7720E-11  0.7320E-11  0.6940E-11
  0.1000E+12  0.9550E-33  0.3310E-25  0.3270E-19  0.8860E-15  0.1240E-12  0.1970E-11  0.4440E-11  0.5650E-11  0.6300E-11  0.6970E-11  0.7400E-11  0.7470E-11  0.7070E-11  0.6700E-11
  0.1000E+13  0.9290E-33  0.3220E-25  0.3200E-19  0.8730E-15  0.1220E-12  0.1950E-11  0.4370E-11  0.5550E-11  0.6180E-11  0.6840E-11  0.7240E-11  0.7300E-11  0.6900E-11  0.6530E-11
  0.1000E+14  0.9200E-33  0.3190E-25  0.3160E-19  0.8660E-15  0.1220E-12  0.1930E-11  0.4330E-11  0.5500E-11  0.6130E-11  0.6770E-11  0.7170E-11  0.7210E-11  0.6810E-11  0.6440E-11
  0.1000E+15  0.9150E-33  0.3170E-25  0.3140E-19  0.8600E-15  0.1210E-12  0.1910E-11  0.4280E-11  0.5430E-11  0.6040E-11  0.6670E-11  0.7060E-11  0.7110E-11  0.6720E-11  0.6350E-11
  0.1000E+16  0.9070E-33  0.3130E-25  0.3090E-19  0.8400E-15  0.1170E-12  0.1830E-11  0.4050E-11  0.5110E-11  0.5670E-11  0.6250E-11  0.6610E-11  0.6660E-11  0.6310E-11  0.5990E-11
  0.1000E+17  0.8800E-33  0.2980E-25  0.2890E-19  0.7560E-15  0.1010E-12  0.1470E-11  0.3080E-11  0.3810E-11  0.4190E-11  0.4590E-11  0.4860E-11  0.4950E-11  0.4780E-11  0.4590E-11
WAVELENGTH(A)= 
     5.248
 7 14 t 
excit   
    44.800     67.200    112.000    224.000    448.000   1120.000   2240.000   3360.000   4480.000   6720.000  11200.000  22400.000  44800.000  67200.000 
  0.1000E+11  0.2990E-33  0.1010E-25  0.9720E-20  0.2560E-15  0.3540E-13  0.5610E-12  0.1260E-11  0.1600E-11  0.1790E-11  0.1980E-11  0.2100E-11  0.2120E-11  0.2020E-11  0.1920E-11
  0.1000E+12  0.2770E-33  0.9460E-26  0.9210E-20  0.2470E-15  0.3430E-13  0.5450E-12  0.1230E-11  0.1560E-11  0.1740E-11  0.1920E-11  0.2040E-11  0.2050E-11  0.1950E-11  0.1850E-11
  0.1000E+13  0.2700E-33  0.9210E-26  0.9020E-20  0.2430E-15  0.3390E-13  0.5380E-12  0.1210E-11  0.1530E-11  0.1710E-11  0.1880E-11  0.2000E-11  0.2010E-11  0.1900E-11  0.1810E-11
  0.1000E+14  0.2680E-33  0.9130E-26  0.8940E-20  0.2410E-15  0.3370E-13  0.5350E-12  0.1200E-11  0.1520E-11  0.1700E-11  0.1870E-11  0.1980E-11  0.1990E-11  0.1880E-11  0.1780E-11
  0.1000E+15  0.2670E-33  0.9080E-26  0.8880E-20  0.2400E-15  0.3340E-13  0.5300E-12  0.1190E-11  0.1500E-11  0.1670E-11  0.1840E-11  0.1950E-11  0.1960E-11  0.1860E-11  0.1760E-11
  0.1000E+16  0.2650E-33  0.8980E-26  0.8740E-20  0.2350E-15  0.3250E-13  0.5080E-12  0.1120E-11  0.1420E-11  0.1570E-11  0.1730E-11  0.1830E-11  0.1840E-11  0.1750E-11  0.1670E-11
  0.1000E+17  0.2590E-33  0.8610E-26  0.8220E-20  0.2130E-15  0.2830E-13  0.4150E-12  0.8730E-12  0.1080E-11  0.1190E-11  0.1300E-11  0.1380E-11  0.1400E-11  0.1350E-11  0.1300E-11
WAVELENGTH(A)= 
     5.370
 7 14 t 
excit   
    44.800     67.200    112.000    224.000    448.000   1120.000   2240.000   3360.000   4480.000   6720.000  11200.000  22400.000  44800.000  67200.000 
  0.1000E+11  0.3280E-33  0.1190E-25  0.1210E-19  0.3330E-15  0.4710E-13  0.7520E-12  0.1700E-11  0.2170E-11  0.2430E-11  0.2680E-11  0.2850E-11  0.2880E-11  0.2740E-11  0.2590E-11
  0.1000E+12  0.3040E-33  0.1110E-25  0.1140E-19  0.3200E-15  0.4560E-13  0.7300E-12  0.1650E-11  0.2110E-11  0.2350E-11  0.2590E-11  0.2760E-11  0.2790E-11  0.2640E-11  0.2500E-11
  0.1000E+13  0.2960E-33  0.1080E-25  0.1120E-19  0.3150E-15  0.4500E-13  0.7200E-12  0.1630E-11  0.2070E-11  0.2310E-11  0.2550E-11  0.2710E-11  0.2730E-11  0.2580E-11  0.2440E-11
  0.1000E+14  0.2930E-33  0.1070E-25  0.1110E-19  0.3130E-15  0.4470E-13  0.7150E-12  0.1610E-11  0.2060E-11  0.2290E-11  0.2520E-11  0.2680E-11  0.2700E-11  0.2550E-11  0.2410E-11
  0.1000E+15  0.2920E-33  0.1060E-25  0.1100E-19  0.3110E-15  0.4440E-13  0.7090E-12  0.1590E-11  0.2030E-11  0.2260E-11  0.2490E-11  0.2640E-11  0.2660E-11  0.2520E-11  0.2380E-11
  0.1000E+16  0.2900E-33  0.1050E-25  0.1080E-19  0.3040E-15  0.4320E-13  0.6810E-12  0.1510E-11  0.1920E-11  0.2130E-11  0.2340E-11  0.2480E-11  0.2500E-11  0.2380E-11  0.2250E-11
  0.1000E+17  0.2850E-33  0.1010E-25  0.1020E-19  0.2780E-15  0.3790E-13  0.5620E-12  0.1190E-11  0.1480E-11  0.1640E-11  0.1790E-11  0.1900E-11  0.1930E-11  0.1860E-11  0.1780E-11
WAVELENGTH(A)= 
     5.393
 7 14 t 
excit   
    44.800     67.200    112.000    224.000    448.000   1120.000   2240.000   3360.000   4480.000   6720.000  11200.000  22400.000  44800.000  67200.000 
  0.1000E+11  0.1860E-33  0.6640E-26  0.6700E-20  0.1820E-15  0.2570E-13  0.4100E-12  0.9250E-12  0.1180E-11  0.1320E-11  0.1450E-11  0.1550E-11  0.1570E-11  0.1490E-11  0.1410E-11
  0.1000E+12  0.1720E-33  0.6210E-26  0.6350E-20  0.1760E-15  0.2490E-13  0.3980E-12  0.8980E-12  0.1140E-11  0.1280E-11  0.1410E-11  0.1500E-11  0.1510E-11  0.1440E-11  0.1360E-11
  0.1000E+13  0.1680E-33  0.6040E-26  0.6210E-20  0.1730E-15  0.2460E-13  0.3930E-12  0.8840E-12  0.1120E-11  0.1250E-11  0.1380E-11  0.1470E-11  0.1480E-11  0.1400E-11  0.1330E-11
  0.1000E+14  0.1660E-33  0.5980E-26  0.6150E-20  0.1720E-15  0.2440E-13  0.3900E-12  0.8770E-12  0.1110E-11  0.1240E-11  0.1370E-11  0.1460E-11  0.1460E-11  0.1390E-11  0.1310E-11
  0.1000E+15  0.1660E-33  0.5940E-26  0.6110E-20  0.1700E-15  0.2430E-13  0.3860E-12  0.8660E-12  0.1100E-11  0.1230E-11  0.1350E-11  0.1440E-11  0.1440E-11  0.1370E-11  0.1290E-11
  0.1000E+16  0.1640E-33  0.5870E-26  0.6000E-20  0.1660E-15  0.2350E-13  0.3700E-12  0.8190E-12  0.1030E-11  0.1150E-11  0.1260E-11  0.1340E-11  0.1350E-11  0.1280E-11  0.1220E-11
  0.1000E+17  0.1600E-33  0.5600E-26  0.5620E-20  0.1500E-15  0.2020E-13  0.2960E-12  0.6200E-12  0.7670E-12  0.8460E-12  0.9240E-12  0.9830E-12  0.1000E-11  0.9690E-12  0.9310E-12
WAVELENGTH(A)= 
     5.398
 7 14 t 
excit   
    44.800     67.200    112.000    224.000    448.000   1120.000   2240.000   3360.000   4480.000   6720.000  11200.000  22400.000  44800.000  67200.000 
  0.1000E+11  0.5510E-32  0.1150E-24  0.7440E-19  0.1470E-14  0.1760E-12  0.2550E-11  0.5600E-11  0.7040E-11  0.7790E-11  0.8590E-11  0.9080E-11  0.9090E-11  0.8600E-11  0.8130E-11
  0.1000E+12  0.5120E-32  0.1070E-24  0.7050E-19  0.1410E-14  0.1700E-12  0.2470E-11  0.5430E-11  0.6830E-11  0.7560E-11  0.8320E-11  0.8790E-11  0.8790E-11  0.8310E-11  0.7840E-11
  0.1000E+13  0.4980E-32  0.1040E-24  0.6890E-19  0.1390E-14  0.1680E-12  0.2440E-11  0.5350E-11  0.6710E-11  0.7420E-11  0.8160E-11  0.8610E-11  0.8600E-11  0.8110E-11  0.7650E-11
  0.1000E+14  0.4930E-32  0.1030E-24  0.6820E-19  0.1380E-14  0.1670E-12  0.2420E-11  0.5300E-11  0.6650E-11  0.7350E-11  0.8080E-11  0.8510E-11  0.8490E-11  0.8000E-11  0.7540E-11
  0.1000E+15  0.4900E-32  0.1020E-24  0.6770E-19  0.1370E-14  0.1660E-12  0.2400E-11  0.5240E-11  0.6560E-11  0.7240E-11  0.7960E-11  0.8390E-11  0.8370E-11  0.7890E-11  0.7440E-11
  0.1000E+16  0.4860E-32  0.1010E-24  0.6650E-19  0.1340E-14  0.1610E-12  0.2290E-11  0.4940E-11  0.6150E-11  0.6780E-11  0.7430E-11  0.7820E-11  0.7820E-11  0.7400E-11  0.6990E-11
  0.1000E+17  0.4690E-32  0.9570E-25  0.6180E-19  0.1190E-14  0.1370E-12  0.1800E-11  0.3670E-11  0.4480E-11  0.4890E-11  0.5330E-11  0.5610E-11  0.5680E-11  0.5480E-11  0.5260E-11
WAVELENGTH(A)= 
     5.415
 7 14 t 
excit   
    44.800     67.200    112.000    224.000    448.000   1120.000   2240.000   3360.000   4480.000   6720.000  11200.000  22400.000  44800.000  67200.000 
  0.1000E+11  0.2140E-32  0.4650E-25  0.3120E-19  0.6190E-15  0.7380E-13  0.1050E-11  0.2250E-11  0.2800E-11  0.3080E-11  0.3340E-11  0.3490E-11  0.3450E-11  0.3200E-11  0.2990E-11
  0.1000E+12  0.2440E-32  0.5120E-25  0.3260E-19  0.6190E-15  0.7310E-13  0.1040E-11  0.2210E-11  0.2750E-11  0.3030E-11  0.3290E-11  0.3440E-11  0.3400E-11  0.3170E-11  0.2970E-11
  0.1000E+13  0.2430E-32  0.5070E-25  0.3210E-19  0.6120E-15  0.7230E-13  0.1020E-11  0.2180E-11  0.2710E-11  0.2980E-11  0.3230E-11  0.3370E-11  0.3330E-11  0.3100E-11  0.2900E-11
  0.1000E+14  0.2410E-32  0.5020E-25  0.3180E-19  0.6060E-15  0.7180E-13  0.1020E-11  0.2160E-11  0.2680E-11  0.2950E-11  0.3200E-11  0.3340E-11  0.3290E-11  0.3060E-11  0.2860E-11
  0.1000E+15  0.2390E-32  0.4970E-25  0.3150E-19  0.6020E-15  0.7130E-13  0.1010E-11  0.2140E-11  0.2660E-11  0.2930E-11  0.3170E-11  0.3300E-11  0.3260E-11  0.3030E-11  0.2830E-11
  0.1000E+16  0.2370E-32  0.4900E-25  0.3100E-19  0.5860E-15  0.6870E-13  0.9600E-12  0.2020E-11  0.2510E-11  0.2750E-11  0.2990E-11  0.3120E-11  0.3090E-11  0.2890E-11  0.2720E-11
  0.1000E+17  0.2270E-32  0.4590E-25  0.2830E-19  0.5110E-15  0.5730E-13  0.7520E-12  0.1510E-11  0.1840E-11  0.2010E-11  0.2180E-11  0.2280E-11  0.2290E-11  0.2190E-11  0.2090E-11
WAVELENGTH(A)= 
     5.420
 7 14 t 
excit   
    44.800     67.200    112.000    224.000    448.000   1120.000   2240.000   3360.000   4480.000   6720.000  11200.000  22400.000  44800.000  67200.000 
  0.1000E+11  0.2000E-32  0.3870E-25  0.2390E-19  0.4500E-15  0.5280E-13  0.7580E-12  0.1650E-11  0.2070E-11  0.2300E-11  0.2520E-11  0.2670E-11  0.2670E-11  0.2520E-11  0.2380E-11
  0.1000E+12  0.1860E-32  0.3620E-25  0.2260E-19  0.4330E-15  0.5110E-13  0.7360E-12  0.1600E-11  0.2010E-11  0.2230E-11  0.2440E-11  0.2580E-11  0.2580E-11  0.2440E-11  0.2300E-11
  0.1000E+13  0.1810E-32  0.3520E-25  0.2210E-19  0.4260E-15  0.5050E-13  0.7260E-12  0.1570E-11  0.1980E-11  0.2190E-11  0.2400E-11  0.2530E-11  0.2530E-11  0.2380E-11  0.2240E-11
  0.1000E+14  0.1790E-32  0.3480E-25  0.2190E-19  0.4230E-15  0.5020E-13  0.7210E-12  0.1560E-11  0.1960E-11  0.2170E-11  0.2370E-11  0.2500E-11  0.2500E-11  0.2350E-11  0.2210E-11
  0.1000E+15  0.1780E-32  0.3460E-25  0.2170E-19  0.4200E-15  0.4980E-13  0.7140E-12  0.1540E-11  0.1930E-11  0.2140E-11  0.2340E-11  0.2460E-11  0.2460E-11  0.2310E-11  0.2180E-11
  0.1000E+16  0.1760E-32  0.3410E-25  0.2130E-19  0.4100E-15  0.4820E-13  0.6810E-12  0.1450E-11  0.1810E-11  0.2000E-11  0.2180E-11  0.2300E-11  0.2300E-11  0.2170E-11  0.2050E-11
  0.1000E+17  0.1700E-32  0.3230E-25  0.1980E-19  0.3660E-15  0.4100E-13  0.5370E-12  0.1080E-11  0.1320E-11  0.1440E-11  0.1560E-11  0.1650E-11  0.1670E-11  0.1610E-11  0.1540E-11
WAVELENGTH(A)= 
     5.423
 7 14 t 
excit   
    44.800     67.200    112.000    224.000    448.000   1120.000   2240.000   3360.000   4480.000   6720.000  11200.000  22400.000  44800.000  67200.000 
  0.1000E+11  0.1230E-32  0.2600E-25  0.1720E-19  0.3360E-15  0.3970E-13  0.5630E-12  0.1200E-11  0.1490E-11  0.1640E-11  0.1780E-11  0.1860E-11  0.1830E-11  0.1700E-11  0.1590E-11
  0.1000E+12  0.1410E-32  0.2890E-25  0.1800E-19  0.3360E-15  0.3940E-13  0.5560E-12  0.1190E-11  0.1470E-11  0.1620E-11  0.1750E-11  0.1830E-11  0.1810E-11  0.1680E-11  0.1580E-11
  0.1000E+13  0.1410E-32  0.2860E-25  0.1780E-19  0.3330E-15  0.3900E-13  0.5490E-12  0.1170E-11  0.1450E-11  0.1590E-11  0.1720E-11  0.1800E-11  0.1770E-11  0.1650E-11  0.1550E-11
  0.1000E+14  0.1390E-32  0.2830E-25  0.1760E-19  0.3300E-15  0.3870E-13  0.5450E-12  0.1160E-11  0.1430E-11  0.1580E-11  0.1710E-11  0.1780E-11  0.1750E-11  0.1620E-11  0.1520E-11
  0.1000E+15  0.1380E-32  0.2800E-25  0.1740E-19  0.3270E-15  0.3840E-13  0.5400E-12  0.1150E-11  0.1420E-11  0.1560E-11  0.1690E-11  0.1760E-11  0.1740E-11  0.1610E-11  0.1510E-11
  0.1000E+16  0.1370E-32  0.2760E-25  0.1710E-19  0.3190E-15  0.3700E-13  0.5140E-12  0.1080E-11  0.1340E-11  0.1470E-11  0.1590E-11  0.1660E-11  0.1650E-11  0.1540E-11  0.1450E-11
  0.1000E+17  0.1310E-32  0.2590E-25  0.1560E-19  0.2780E-15  0.3090E-13  0.4030E-12  0.8110E-12  0.9860E-12  0.1080E-11  0.1160E-11  0.1220E-11  0.1220E-11  0.1160E-11  0.1110E-11
WAVELENGTH(A)= 
     6.240
 7 14 t 
excit   
    44.800     67.200    112.000    224.000    448.000   1120.000   2240.000   3360.000   4480.000   6720.000  11200.000  22400.000  44800.000  67200.000 
  0.1000E+11  0.4080E-30  0.9810E-24  0.1350E-18  0.9790E-15  0.7480E-13  0.8270E-12  0.1600E-11  0.1880E-11  0.1990E-11  0.2050E-11  0.2000E-11  0.1800E-11  0.1560E-11  0.1410E-11
  0.1000E+12  0.3840E-30  0.9290E-24  0.1290E-18  0.9450E-15  0.7260E-13  0.8050E-12  0.1550E-11  0.1830E-11  0.1940E-11  0.1990E-11  0.1940E-11  0.1740E-11  0.1510E-11  0.1360E-11
  0.1000E+13  0.3750E-30  0.9050E-24  0.1270E-18  0.9320E-15  0.7180E-13  0.7940E-12  0.1530E-11  0.1800E-11  0.1900E-11  0.1950E-11  0.1900E-11  0.1710E-11  0.1470E-11  0.1330E-11
  0.1000E+14  0.3710E-30  0.8950E-24  0.1250E-18  0.9240E-15  0.7130E-13  0.7880E-12  0.1520E-11  0.1780E-11  0.1880E-11  0.1930E-11  0.1880E-11  0.1680E-11  0.1450E-11  0.1310E-11
  0.1000E+15  0.3690E-30  0.8890E-24  0.1240E-18  0.9180E-15  0.7070E-13  0.7800E-12  0.1500E-11  0.1760E-11  0.1860E-11  0.1910E-11  0.1850E-11  0.1660E-11  0.1430E-11  0.1290E-11
  0.1000E+16  0.3660E-30  0.8770E-24  0.1220E-18  0.8950E-15  0.6850E-13  0.7450E-12  0.1410E-11  0.1650E-11  0.1740E-11  0.1780E-11  0.1730E-11  0.1550E-11  0.1340E-11  0.1220E-11
  0.1000E+17  0.3530E-30  0.8310E-24  0.1130E-18  0.7970E-15  0.5810E-13  0.5870E-12  0.1050E-11  0.1200E-11  0.1260E-11  0.1280E-11  0.1240E-11  0.1130E-11  0.9980E-12  0.9170E-12
WAVELENGTH(A)= 
     6.365
 7 14 t 
excit   
    44.800     67.200    112.000    224.000    448.000   1120.000   2240.000   3360.000   4480.000   6720.000  11200.000  22400.000  44800.000  67200.000 
  0.1000E+11  0.3150E-30  0.6290E-24  0.9070E-19  0.8240E-15  0.7320E-13  0.8720E-12  0.1690E-11  0.1960E-11  0.2040E-11  0.2040E-11  0.1910E-11  0.1610E-11  0.1300E-11  0.1120E-11
  0.1000E+12  0.3540E-30  0.6840E-24  0.9360E-19  0.8200E-15  0.7230E-13  0.8590E-12  0.1660E-11  0.1920E-11  0.2010E-11  0.2010E-11  0.1880E-11  0.1590E-11  0.1280E-11  0.1110E-11
  0.1000E+13  0.3520E-30  0.6760E-24  0.9230E-19  0.8100E-15  0.7150E-13  0.8480E-12  0.1630E-11  0.1890E-11  0.1980E-11  0.1970E-11  0.1840E-11  0.1560E-11  0.1250E-11  0.1090E-11
  0.1000E+14  0.3490E-30  0.6690E-24  0.9140E-19  0.8030E-15  0.7100E-13  0.8420E-12  0.1620E-11  0.1880E-11  0.1960E-11  0.1950E-11  0.1820E-11  0.1540E-11  0.1230E-11  0.1070E-11
  0.1000E+15  0.3460E-30  0.6630E-24  0.9050E-19  0.7980E-15  0.7050E-13  0.8350E-12  0.1600E-11  0.1860E-11  0.1940E-11  0.1930E-11  0.1800E-11  0.1520E-11  0.1220E-11  0.1060E-11
  0.1000E+16  0.3430E-30  0.6530E-24  0.8900E-19  0.7770E-15  0.6800E-13  0.7950E-12  0.1520E-11  0.1750E-11  0.1820E-11  0.1820E-11  0.1700E-11  0.1440E-11  0.1160E-11  0.1010E-11
  0.1000E+17  0.3280E-30  0.6140E-24  0.8160E-19  0.6820E-15  0.5710E-13  0.6260E-12  0.1140E-11  0.1290E-11  0.1340E-11  0.1330E-11  0.1240E-11  0.1070E-11  0.8800E-12  0.7780E-12
WAVELENGTH(A)= 
     6.368
 7 14 t 
excit   
    44.800     67.200    112.000    224.000    448.000   1120.000   2240.000   3360.000   4480.000   6720.000  11200.000  22400.000  44800.000  67200.000 
  0.1000E+11  0.4010E-30  0.7320E-24  0.1010E-18  0.9100E-15  0.8050E-13  0.9680E-12  0.1910E-11  0.2240E-11  0.2340E-11  0.2370E-11  0.2230E-11  0.1910E-11  0.1550E-11  0.1350E-11
  0.1000E+12  0.3720E-30  0.6840E-24  0.9600E-19  0.8750E-15  0.7790E-13  0.9390E-12  0.1850E-11  0.2170E-11  0.2270E-11  0.2300E-11  0.2160E-11  0.1840E-11  0.1490E-11  0.1300E-11
  0.1000E+13  0.3620E-30  0.6660E-24  0.9390E-19  0.8620E-15  0.7700E-13  0.9270E-12  0.1820E-11  0.2130E-11  0.2230E-11  0.2250E-11  0.2120E-11  0.1800E-11  0.1460E-11  0.1270E-11
  0.1000E+14  0.3580E-30  0.6580E-24  0.9290E-19  0.8550E-15  0.7650E-13  0.9200E-12  0.1810E-11  0.2110E-11  0.2210E-11  0.2230E-11  0.2090E-11  0.1780E-11  0.1440E-11  0.1250E-11
  0.1000E+15  0.3560E-30  0.6540E-24  0.9230E-19  0.8490E-15  0.7590E-13  0.9110E-12  0.1790E-11  0.2090E-11  0.2180E-11  0.2200E-11  0.2060E-11  0.1760E-11  0.1420E-11  0.1240E-11
  0.1000E+16  0.3530E-30  0.6450E-24  0.9060E-19  0.8290E-15  0.7350E-13  0.8710E-12  0.1680E-11  0.1960E-11  0.2040E-11  0.2050E-11  0.1930E-11  0.1640E-11  0.1330E-11  0.1160E-11
  0.1000E+17  0.3410E-30  0.6120E-24  0.8440E-19  0.7410E-15  0.6270E-13  0.6880E-12  0.1260E-11  0.1430E-11  0.1480E-11  0.1480E-11  0.1390E-11  0.1200E-11  0.9900E-12  0.8790E-12
WAVELENGTH(A)= 
     6.368
 7 14 t 
excit   
    44.800     67.200    112.000    224.000    448.000   1120.000   2240.000   3360.000   4480.000   6720.000  11200.000  22400.000  44800.000  67200.000 
  0.1000E+11  0.5010E-30  0.9120E-24  0.1250E-18  0.1120E-14  0.9870E-13  0.1190E-11  0.2340E-11  0.2740E-11  0.2870E-11  0.2900E-11  0.2730E-11  0.2330E-11  0.1890E-11  0.1650E-11
  0.1000E+12  0.4650E-30  0.8520E-24  0.1180E-18  0.1070E-14  0.9560E-13  0.1150E-11  0.2270E-11  0.2660E-11  0.2780E-11  0.2810E-11  0.2640E-11  0.2250E-11  0.1830E-11  0.1590E-11
  0.1000E+13  0.4520E-30  0.8290E-24  0.1160E-18  0.1060E-14  0.9440E-13  0.1140E-11  0.2230E-11  0.2610E-11  0.2730E-11  0.2760E-11  0.2590E-11  0.2200E-11  0.1780E-11  0.1550E-11
  0.1000E+14  0.4480E-30  0.8200E-24  0.1150E-18  0.1050E-14  0.9380E-13  0.1130E-11  0.2220E-11  0.2590E-11  0.2710E-11  0.2730E-11  0.2560E-11  0.2180E-11  0.1760E-11  0.1530E-11
  0.1000E+15  0.4460E-30  0.8150E-24  0.1140E-18  0.1040E-14  0.9310E-13  0.1120E-11  0.2190E-11  0.2550E-11  0.2670E-11  0.2690E-11  0.2520E-11  0.2140E-11  0.1730E-11  0.1510E-11
  0.1000E+16  0.4410E-30  0.8040E-24  0.1120E-18  0.1020E-14  0.9020E-13  0.1070E-11  0.2060E-11  0.2400E-11  0.2500E-11  0.2510E-11  0.2350E-11  0.2010E-11  0.1630E-11  0.1420E-11
  0.1000E+17  0.4260E-30  0.7620E-24  0.1040E-18  0.9080E-15  0.7680E-13  0.8440E-12  0.1540E-11  0.1750E-11  0.1810E-11  0.1810E-11  0.1700E-11  0.1460E-11  0.1210E-11  0.1070E-11
WAVELENGTH(A)= 
     6.383
 7 14 t 
excit   
    44.800     67.200    112.000    224.000    448.000   1120.000   2240.000   3360.000   4480.000   6720.000  11200.000  22400.000  44800.000  67200.000 
  0.1000E+11  0.5250E-30  0.9010E-24  0.1140E-18  0.9610E-15  0.8350E-13  0.9970E-12  0.1970E-11  0.2300E-11  0.2420E-11  0.2450E-11  0.2310E-11  0.1990E-11  0.1620E-11  0.1420E-11
  0.1000E+12  0.4880E-30  0.8420E-24  0.1080E-18  0.9240E-15  0.8090E-13  0.9680E-12  0.1910E-11  0.2240E-11  0.2340E-11  0.2370E-11  0.2240E-11  0.1920E-11  0.1570E-11  0.1370E-11
  0.1000E+13  0.4750E-30  0.8190E-24  0.1050E-18  0.9110E-15  0.7990E-13  0.9550E-12  0.1880E-11  0.2200E-11  0.2300E-11  0.2330E-11  0.2190E-11  0.1880E-11  0.1530E-11  0.1340E-11
  0.1000E+14  0.4700E-30  0.8110E-24  0.1040E-18  0.9030E-15  0.7940E-13  0.9490E-12  0.1860E-11  0.2180E-11  0.2280E-11  0.2310E-11  0.2170E-11  0.1860E-11  0.1510E-11  0.1320E-11
  0.1000E+15  0.4670E-30  0.8050E-24  0.1040E-18  0.8970E-15  0.7880E-13  0.9390E-12  0.1840E-11  0.2150E-11  0.2250E-11  0.2270E-11  0.2140E-11  0.1830E-11  0.1490E-11  0.1300E-11
  0.1000E+16  0.4630E-30  0.7940E-24  0.1020E-18  0.8760E-15  0.7640E-13  0.8980E-12  0.1740E-11  0.2020E-11  0.2110E-11  0.2120E-11  0.2000E-11  0.1710E-11  0.1400E-11  0.1230E-11
  0.1000E+17  0.4470E-30  0.7530E-24  0.9480E-19  0.7830E-15  0.6510E-13  0.7100E-12  0.1300E-11  0.1480E-11  0.1530E-11  0.1530E-11  0.1440E-11  0.1250E-11  0.1040E-11  0.9260E-12
WAVELENGTH(A)= 
    28.306
 7 14 t 
excit   
    44.800     67.200    112.000    224.000    448.000   1120.000   2240.000   3360.000   4480.000   6720.000  11200.000  22400.000  44800.000  67200.000 
  0.1000E+11  0.3910E-14  0.8920E-13  0.1020E-11  0.5770E-11  0.1200E-10  0.1540E-10  0.1450E-10  0.1340E-10  0.1250E-10  0.1120E-10  0.9600E-11  0.7590E-11  0.5880E-11  0.5050E-11
  0.1000E+12  0.5280E-14  0.1170E-12  0.1330E-11  0.7200E-11  0.1440E-10  0.1800E-10  0.1700E-10  0.1570E-10  0.1480E-10  0.1320E-10  0.1140E-10  0.9140E-11  0.7170E-11  0.6180E-11
  0.1000E+13  0.6480E-14  0.1410E-12  0.1510E-11  0.7590E-11  0.1480E-10  0.1840E-10  0.1730E-10  0.1600E-10  0.1500E-10  0.1350E-10  0.1170E-10  0.9410E-11  0.7440E-11  0.6450E-11
  0.1000E+14  0.6750E-14  0.1450E-12  0.1520E-11  0.7580E-11  0.1480E-10  0.1840E-10  0.1720E-10  0.1600E-10  0.1500E-10  0.1340E-10  0.1160E-10  0.9350E-11  0.7390E-11  0.6410E-11
  0.1000E+15  0.6740E-14  0.1450E-12  0.1510E-11  0.7530E-11  0.1470E-10  0.1820E-10  0.1710E-10  0.1580E-10  0.1480E-10  0.1330E-10  0.1150E-10  0.9280E-11  0.7330E-11  0.6360E-11
  0.1000E+16  0.6680E-14  0.1430E-12  0.1490E-11  0.7340E-11  0.1420E-10  0.1730E-10  0.1610E-10  0.1490E-10  0.1400E-10  0.1260E-10  0.1090E-10  0.8830E-11  0.7020E-11  0.6110E-11
  0.1000E+17  0.6420E-14  0.1340E-12  0.1360E-11  0.6410E-11  0.1190E-10  0.1360E-10  0.1210E-10  0.1110E-10  0.1030E-10  0.9220E-11  0.8050E-11  0.6590E-11  0.5350E-11  0.4720E-11
WAVELENGTH(A)= 
    28.535
 7 14 t 
excit   
    44.800     67.200    112.000    224.000    448.000   1120.000   2240.000   3360.000   4480.000   6720.000  11200.000  22400.000  44800.000  67200.000 
  0.1000E+11  0.3050E-13  0.6190E-12  0.6280E-11  0.3100E-10  0.5970E-10  0.7490E-10  0.7200E-10  0.6770E-10  0.6400E-10  0.5850E-10  0.5130E-10  0.4210E-10  0.3390E-10  0.2970E-10
  0.1000E+12  0.2900E-13  0.5880E-12  0.6010E-11  0.2990E-10  0.5790E-10  0.7280E-10  0.7000E-10  0.6580E-10  0.6210E-10  0.5670E-10  0.4970E-10  0.4080E-10  0.3280E-10  0.2870E-10
  0.1000E+13  0.2830E-13  0.5740E-12  0.5880E-11  0.2950E-10  0.5720E-10  0.7190E-10  0.6890E-10  0.6460E-10  0.6100E-10  0.5570E-10  0.4870E-10  0.3990E-10  0.3210E-10  0.2800E-10
  0.1000E+14  0.2800E-13  0.5670E-12  0.5820E-11  0.2920E-10  0.5680E-10  0.7140E-10  0.6840E-10  0.6410E-10  0.6040E-10  0.5510E-10  0.4820E-10  0.3940E-10  0.3160E-10  0.2760E-10
  0.1000E+15  0.2780E-13  0.5630E-12  0.5780E-11  0.2900E-10  0.5640E-10  0.7070E-10  0.6750E-10  0.6320E-10  0.5960E-10  0.5430E-10  0.4750E-10  0.3880E-10  0.3120E-10  0.2730E-10
  0.1000E+16  0.2760E-13  0.5560E-12  0.5670E-11  0.2830E-10  0.5460E-10  0.6750E-10  0.6370E-10  0.5930E-10  0.5580E-10  0.5080E-10  0.4440E-10  0.3640E-10  0.2930E-10  0.2570E-10
  0.1000E+17  0.2660E-13  0.5270E-12  0.5270E-11  0.2520E-10  0.4640E-10  0.5320E-10  0.4750E-10  0.4330E-10  0.4040E-10  0.3650E-10  0.3190E-10  0.2650E-10  0.2180E-10  0.1940E-10
WAVELENGTH(A)= 
    28.969
 7 14 t 
excit   
    44.800     67.200    112.000    224.000    448.000   1120.000   2240.000   3360.000   4480.000   6720.000  11200.000  22400.000  44800.000  67200.000 
  0.1000E+11  0.2360E-14  0.5010E-13  0.5390E-12  0.2890E-11  0.5860E-11  0.7360E-11  0.6930E-11  0.6400E-11  0.5970E-11  0.5320E-11  0.4570E-11  0.3620E-11  0.2820E-11  0.2410E-11
  0.1000E+12  0.3140E-14  0.6480E-13  0.6840E-12  0.3530E-11  0.6890E-11  0.8510E-11  0.7990E-11  0.7400E-11  0.6920E-11  0.6190E-11  0.5350E-11  0.4280E-11  0.3360E-11  0.2900E-11
  0.1000E+13  0.3780E-14  0.7640E-13  0.7660E-12  0.3700E-11  0.7080E-11  0.8660E-11  0.8120E-11  0.7520E-11  0.7030E-11  0.6310E-11  0.5460E-11  0.4390E-11  0.3470E-11  0.3010E-11
  0.1000E+14  0.3920E-14  0.7860E-13  0.7730E-12  0.3690E-11  0.7060E-11  0.8630E-11  0.8080E-11  0.7480E-11  0.6990E-11  0.6270E-11  0.5430E-11  0.4360E-11  0.3450E-11  0.2980E-11
  0.1000E+15  0.3920E-14  0.7830E-13  0.7690E-12  0.3670E-11  0.7020E-11  0.8570E-11  0.8020E-11  0.7420E-11  0.6940E-11  0.6220E-11  0.5390E-11  0.4330E-11  0.3420E-11  0.2960E-11
  0.1000E+16  0.3900E-14  0.7750E-13  0.7570E-12  0.3580E-11  0.6770E-11  0.8170E-11  0.7590E-11  0.7000E-11  0.6550E-11  0.5870E-11  0.5100E-11  0.4120E-11  0.3280E-11  0.2850E-11
  0.1000E+17  0.3760E-14  0.7310E-13  0.6950E-12  0.3130E-11  0.5670E-11  0.6430E-11  0.5720E-11  0.5200E-11  0.4830E-11  0.4320E-11  0.3760E-11  0.3080E-11  0.2500E-11  0.2210E-11
WAVELENGTH(A)= 
    28.985
 7 14 t 
excit   
    44.800     67.200    112.000    224.000    448.000   1120.000   2240.000   3360.000   4480.000   6720.000  11200.000  22400.000  44800.000  67200.000 
  0.1000E+11  0.3820E-14  0.7730E-13  0.7850E-12  0.3870E-11  0.7460E-11  0.9360E-11  0.9010E-11  0.8460E-11  0.8000E-11  0.7310E-11  0.6410E-11  0.5260E-11  0.4240E-11  0.3710E-11
  0.1000E+12  0.3620E-14  0.7350E-13  0.7510E-12  0.3740E-11  0.7240E-11  0.9110E-11  0.8750E-11  0.8220E-11  0.7770E-11  0.7090E-11  0.6210E-11  0.5100E-11  0.4100E-11  0.3590E-11
  0.1000E+13  0.3530E-14  0.7170E-13  0.7350E-12  0.3680E-11  0.7150E-11  0.8980E-11  0.8620E-11  0.8080E-11  0.7630E-11  0.6960E-11  0.6090E-11  0.4990E-11  0.4010E-11  0.3500E-11
  0.1000E+14  0.3500E-14  0.7090E-13  0.7280E-12  0.3650E-11  0.7110E-11  0.8920E-11  0.8550E-11  0.8010E-11  0.7560E-11  0.6890E-11  0.6020E-11  0.4920E-11  0.3950E-11  0.3450E-11
  0.1000E+15  0.3480E-14  0.7040E-13  0.7220E-12  0.3630E-11  0.7050E-11  0.8830E-11  0.8440E-11  0.7900E-11  0.7450E-11  0.6790E-11  0.5940E-11  0.4860E-11  0.3900E-11  0.3410E-11
  0.1000E+16  0.3450E-14  0.6950E-13  0.7090E-12  0.3540E-11  0.6830E-11  0.8430E-11  0.7960E-11  0.7420E-11  0.6980E-11  0.6350E-11  0.5550E-11  0.4550E-11  0.3660E-11  0.3210E-11
  0.1000E+17  0.3330E-14  0.6580E-13  0.6590E-12  0.3150E-11  0.5800E-11  0.6650E-11  0.5930E-11  0.5410E-11  0.5050E-11  0.4560E-11  0.3990E-11  0.3310E-11  0.2720E-11  0.2420E-11
WAVELENGTH(A)= 
    29.192
 7 14 t 
excit   
    44.800     67.200    112.000    224.000    448.000   1120.000   2240.000   3360.000   4480.000   6720.000  11200.000  22400.000  44800.000  67200.000 
  0.1000E+11  0.4750E-13  0.8900E-12  0.8490E-11  0.4010E-10  0.7560E-10  0.9390E-10  0.9020E-10  0.8470E-10  0.8010E-10  0.7340E-10  0.6410E-10  0.5250E-10  0.4260E-10  0.3720E-10
  0.1000E+12  0.4410E-13  0.8310E-12  0.8040E-11  0.3850E-10  0.7320E-10  0.9110E-10  0.8760E-10  0.8220E-10  0.7760E-10  0.7110E-10  0.6210E-10  0.5070E-10  0.4120E-10  0.3590E-10
  0.1000E+13  0.4290E-13  0.8090E-12  0.7870E-11  0.3800E-10  0.7230E-10  0.8990E-10  0.8620E-10  0.8080E-10  0.7620E-10  0.6980E-10  0.6080E-10  0.4960E-10  0.4020E-10  0.3500E-10
  0.1000E+14  0.4250E-13  0.8000E-12  0.7780E-11  0.3760E-10  0.7180E-10  0.8930E-10  0.8550E-10  0.8010E-10  0.7550E-10  0.6910E-10  0.6010E-10  0.4900E-10  0.3960E-10  0.3450E-10
  0.1000E+15  0.4220E-13  0.7950E-12  0.7730E-11  0.3740E-10  0.7130E-10  0.8840E-10  0.8440E-10  0.7900E-10  0.7440E-10  0.6810E-10  0.5920E-10  0.4830E-10  0.3910E-10  0.3400E-10
  0.1000E+16  0.4180E-13  0.7840E-12  0.7590E-11  0.3650E-10  0.6900E-10  0.8440E-10  0.7960E-10  0.7410E-10  0.6970E-10  0.6350E-10  0.5530E-10  0.4510E-10  0.3670E-10  0.3200E-10
  0.1000E+17  0.4040E-13  0.7440E-12  0.7060E-11  0.3260E-10  0.5880E-10  0.6660E-10  0.5930E-10  0.5400E-10  0.5030E-10  0.4560E-10  0.3970E-10  0.3280E-10  0.2720E-10  0.2410E-10
WAVELENGTH(A)= 
    29.283
 7 14 t 
excit   
    44.800     67.200    112.000    224.000    448.000   1120.000   2240.000   3360.000   4480.000   6720.000  11200.000  22400.000  44800.000  67200.000 
  0.1000E+11  0.9170E-15  0.1770E-13  0.1730E-12  0.8190E-12  0.1540E-11  0.1880E-11  0.1760E-11  0.1630E-11  0.1530E-11  0.1390E-11  0.1200E-11  0.9690E-12  0.7690E-12  0.6680E-12
  0.1000E+12  0.1030E-14  0.1930E-13  0.1800E-12  0.8170E-12  0.1520E-11  0.1850E-11  0.1730E-11  0.1610E-11  0.1510E-11  0.1360E-11  0.1180E-11  0.9550E-12  0.7600E-12  0.6610E-12
  0.1000E+13  0.1030E-14  0.1910E-13  0.1780E-12  0.8080E-12  0.1510E-11  0.1830E-11  0.1710E-11  0.1580E-11  0.1480E-11  0.1340E-11  0.1160E-11  0.9360E-12  0.7430E-12  0.6470E-12
  0.1000E+14  0.1020E-14  0.1890E-13  0.1760E-12  0.8010E-12  0.1490E-11  0.1810E-11  0.1690E-11  0.1570E-11  0.1470E-11  0.1330E-11  0.1150E-11  0.9240E-12  0.7330E-12  0.6370E-12
  0.1000E+15  0.1010E-14  0.1870E-13  0.1740E-12  0.7950E-12  0.1480E-11  0.1800E-11  0.1680E-11  0.1550E-11  0.1450E-11  0.1310E-11  0.1140E-11  0.9160E-12  0.7260E-12  0.6310E-12
  0.1000E+16  0.1000E-14  0.1850E-13  0.1710E-12  0.7750E-12  0.1430E-11  0.1720E-11  0.1590E-11  0.1460E-11  0.1370E-11  0.1240E-11  0.1070E-11  0.8700E-12  0.6940E-12  0.6050E-12
  0.1000E+17  0.9650E-15  0.1740E-13  0.1570E-12  0.6800E-12  0.1200E-11  0.1350E-11  0.1200E-11  0.1090E-11  0.1010E-11  0.9090E-12  0.7910E-12  0.6490E-12  0.5280E-12  0.4670E-12
WAVELENGTH(A)= 
    29.354
 7 14 t 
excit   
    44.800     67.200    112.000    224.000    448.000   1120.000   2240.000   3360.000   4480.000   6720.000  11200.000  22400.000  44800.000  67200.000 
  0.1000E+11  0.2290E-14  0.5220E-13  0.6000E-12  0.3380E-11  0.7040E-11  0.8990E-11  0.8480E-11  0.7840E-11  0.7330E-11  0.6530E-11  0.5610E-11  0.4440E-11  0.3440E-11  0.2950E-11
  0.1000E+12  0.3090E-14  0.6870E-13  0.7780E-12  0.4210E-11  0.8430E-11  0.1060E-10  0.9940E-11  0.9210E-11  0.8630E-11  0.7730E-11  0.6690E-11  0.5350E-11  0.4190E-11  0.3620E-11
  0.1000E+13  0.3790E-14  0.8250E-13  0.8810E-12  0.4440E-11  0.8690E-11  0.1080E-10  0.1010E-10  0.9390E-11  0.8800E-11  0.7900E-11  0.6850E-11  0.5510E-11  0.4350E-11  0.3770E-11
  0.1000E+14  0.3950E-14  0.8510E-13  0.8910E-12  0.4440E-11  0.8660E-11  0.1070E-10  0.1010E-10  0.9340E-11  0.8760E-11  0.7850E-11  0.6810E-11  0.5470E-11  0.4320E-11  0.3750E-11
  0.1000E+15  0.3940E-14  0.8460E-13  0.8840E-12  0.4410E-11  0.8610E-11  0.1070E-10  0.9990E-11  0.9260E-11  0.8680E-11  0.7790E-11  0.6760E-11  0.5430E-11  0.4290E-11  0.3720E-11
  0.1000E+16  0.3910E-14  0.8360E-13  0.8700E-12  0.4300E-11  0.8300E-11  0.1020E-10  0.9450E-11  0.8740E-11  0.8190E-11  0.7350E-11  0.6390E-11  0.5160E-11  0.4110E-11  0.3580E-11
  0.1000E+17  0.3760E-14  0.7870E-13  0.7970E-12  0.3750E-11  0.6940E-11  0.7980E-11  0.7110E-11  0.6470E-11  0.6030E-11  0.5400E-11  0.4710E-11  0.3860E-11  0.3130E-11  0.2760E-11
WAVELENGTH(A)= 
    29.757
 7 14 t 
excit   
    44.800     67.200    112.000    224.000    448.000   1120.000   2240.000   3360.000   4480.000   6720.000  11200.000  22400.000  44800.000  67200.000 
  0.1000E+11  0.9670E-14  0.1870E-12  0.1830E-11  0.8640E-11  0.1620E-10  0.1980E-10  0.1860E-10  0.1720E-10  0.1620E-10  0.1460E-10  0.1270E-10  0.1020E-10  0.8110E-11  0.7050E-11
  0.1000E+12  0.1090E-13  0.2040E-12  0.1900E-11  0.8620E-11  0.1600E-10  0.1950E-10  0.1830E-10  0.1690E-10  0.1590E-10  0.1440E-10  0.1250E-10  0.1010E-10  0.8010E-11  0.6980E-11
  0.1000E+13  0.1080E-13  0.2010E-12  0.1870E-11  0.8520E-11  0.1590E-10  0.1930E-10  0.1800E-10  0.1670E-10  0.1560E-10  0.1410E-10  0.1220E-10  0.9870E-11  0.7840E-11  0.6820E-11
  0.1000E+14  0.1070E-13  0.1990E-12  0.1850E-11  0.8440E-11  0.1580E-10  0.1910E-10  0.1790E-10  0.1650E-10  0.1550E-10  0.1400E-10  0.1210E-10  0.9750E-11  0.7730E-11  0.6720E-11
  0.1000E+15  0.1070E-13  0.1970E-12  0.1840E-11  0.8380E-11  0.1560E-10  0.1900E-10  0.1770E-10  0.1640E-10  0.1530E-10  0.1390E-10  0.1200E-10  0.9660E-11  0.7660E-11  0.6660E-11
  0.1000E+16  0.1060E-13  0.1950E-12  0.1810E-11  0.8170E-11  0.1510E-10  0.1810E-10  0.1670E-10  0.1540E-10  0.1450E-10  0.1310E-10  0.1130E-10  0.9170E-11  0.7320E-11  0.6380E-11
  0.1000E+17  0.1020E-13  0.1840E-12  0.1660E-11  0.7170E-11  0.1270E-10  0.1430E-10  0.1260E-10  0.1140E-10  0.1060E-10  0.9590E-11  0.8340E-11  0.6840E-11  0.5570E-11  0.4930E-11
WAVELENGTH(A)= 
    30.068
 7 14 t 
excit   
    44.800     67.200    112.000    224.000    448.000   1120.000   2240.000   3360.000   4480.000   6720.000  11200.000  22400.000  44800.000  67200.000 
  0.1000E+11  0.1210E-14  0.2580E-13  0.2770E-12  0.1490E-11  0.3010E-11  0.3780E-11  0.3560E-11  0.3290E-11  0.3070E-11  0.2740E-11  0.2350E-11  0.1860E-11  0.1450E-11  0.1240E-11
  0.1000E+12  0.1610E-14  0.3330E-13  0.3520E-12  0.1810E-11  0.3540E-11  0.4370E-11  0.4110E-11  0.3800E-11  0.3550E-11  0.3180E-11  0.2750E-11  0.2200E-11  0.1730E-11  0.1490E-11
  0.1000E+13  0.1940E-14  0.3920E-13  0.3930E-12  0.1900E-11  0.3640E-11  0.4450E-11  0.4170E-11  0.3860E-11  0.3610E-11  0.3240E-11  0.2810E-11  0.2250E-11  0.1780E-11  0.1540E-11
  0.1000E+14  0.2020E-14  0.4040E-13  0.3970E-12  0.1900E-11  0.3630E-11  0.4440E-11  0.4150E-11  0.3840E-11  0.3590E-11  0.3220E-11  0.2790E-11  0.2240E-11  0.1770E-11  0.1530E-11
  0.1000E+15  0.2020E-14  0.4020E-13  0.3950E-12  0.1890E-11  0.3600E-11  0.4400E-11  0.4120E-11  0.3810E-11  0.3560E-11  0.3200E-11  0.2770E-11  0.2220E-11  0.1760E-11  0.1520E-11
  0.1000E+16  0.2010E-14  0.3980E-13  0.3890E-12  0.1840E-11  0.3480E-11  0.4200E-11  0.3900E-11  0.3600E-11  0.3360E-11  0.3020E-11  0.2620E-11  0.2110E-11  0.1680E-11  0.1460E-11
  0.1000E+17  0.1930E-14  0.3760E-13  0.3570E-12  0.1610E-11  0.2910E-11  0.3300E-11  0.2940E-11  0.2670E-11  0.2480E-11  0.2220E-11  0.1930E-11  0.1580E-11  0.1290E-11  0.1130E-11
WAVELENGTH(A)= 
    30.220
 7 14 t 
excit   
    44.800     67.200    112.000    224.000    448.000   1120.000   2240.000   3360.000   4480.000   6720.000  11200.000  22400.000  44800.000  67200.000 
  0.1000E+11  0.1480E-13  0.2740E-12  0.2590E-11  0.1190E-10  0.2210E-10  0.2670E-10  0.2490E-10  0.2310E-10  0.2170E-10  0.1950E-10  0.1690E-10  0.1360E-10  0.1080E-10  0.9330E-11
  0.1000E+12  0.1700E-13  0.3050E-12  0.2720E-11  0.1200E-10  0.2190E-10  0.2640E-10  0.2460E-10  0.2280E-10  0.2140E-10  0.1920E-10  0.1660E-10  0.1340E-10  0.1070E-10  0.9260E-11
  0.1000E+13  0.1690E-13  0.3020E-12  0.2680E-11  0.1180E-10  0.2170E-10  0.2610E-10  0.2420E-10  0.2240E-10  0.2100E-10  0.1890E-10  0.1630E-10  0.1320E-10  0.1040E-10  0.9060E-11
  0.1000E+14  0.1680E-13  0.2990E-12  0.2650E-11  0.1170E-10  0.2160E-10  0.2590E-10  0.2400E-10  0.2220E-10  0.2080E-10  0.1870E-10  0.1610E-10  0.1300E-10  0.1030E-10  0.8920E-11
  0.1000E+15  0.1670E-13  0.2960E-12  0.2630E-11  0.1160E-10  0.2140E-10  0.2570E-10  0.2380E-10  0.2200E-10  0.2060E-10  0.1850E-10  0.1600E-10  0.1290E-10  0.1020E-10  0.8850E-11
  0.1000E+16  0.1650E-13  0.2920E-12  0.2580E-11  0.1130E-10  0.2060E-10  0.2450E-10  0.2250E-10  0.2070E-10  0.1940E-10  0.1740E-10  0.1510E-10  0.1220E-10  0.9750E-11  0.8490E-11
  0.1000E+17  0.1580E-13  0.2740E-12  0.2360E-11  0.9900E-11  0.1720E-10  0.1920E-10  0.1690E-10  0.1530E-10  0.1430E-10  0.1280E-10  0.1110E-10  0.9120E-11  0.7410E-11  0.6550E-11
WAVELENGTH(A)= 
    31.506
 7 14 t 
excit   
    44.800     67.200    112.000    224.000    448.000   1120.000   2240.000   3360.000   4480.000   6720.000  11200.000  22400.000  44800.000  67200.000 
  0.1000E+11  0.2620E-13  0.3900E-12  0.3090E-11  0.1270E-10  0.2250E-10  0.2670E-10  0.2540E-10  0.2370E-10  0.2230E-10  0.2030E-10  0.1780E-10  0.1450E-10  0.1170E-10  0.1020E-10
  0.1000E+12  0.2430E-13  0.3640E-12  0.2930E-11  0.1220E-10  0.2170E-10  0.2590E-10  0.2460E-10  0.2300E-10  0.2160E-10  0.1970E-10  0.1720E-10  0.1400E-10  0.1130E-10  0.9880E-11
  0.1000E+13  0.2370E-13  0.3550E-12  0.2870E-11  0.1210E-10  0.2150E-10  0.2560E-10  0.2430E-10  0.2260E-10  0.2120E-10  0.1930E-10  0.1690E-10  0.1370E-10  0.1100E-10  0.9640E-11
  0.1000E+14  0.2340E-13  0.3510E-12  0.2840E-11  0.1200E-10  0.2130E-10  0.2540E-10  0.2410E-10  0.2240E-10  0.2110E-10  0.1910E-10  0.1670E-10  0.1360E-10  0.1090E-10  0.9500E-11
  0.1000E+15  0.2330E-13  0.3490E-12  0.2820E-11  0.1190E-10  0.2120E-10  0.2520E-10  0.2380E-10  0.2210E-10  0.2080E-10  0.1890E-10  0.1640E-10  0.1340E-10  0.1070E-10  0.9380E-11
  0.1000E+16  0.2310E-13  0.3440E-12  0.2770E-11  0.1160E-10  0.2050E-10  0.2410E-10  0.2240E-10  0.2080E-10  0.1950E-10  0.1760E-10  0.1540E-10  0.1250E-10  0.1010E-10  0.8830E-11
  0.1000E+17  0.2240E-13  0.3280E-12  0.2590E-11  0.1040E-10  0.1760E-10  0.1910E-10  0.1690E-10  0.1530E-10  0.1420E-10  0.1280E-10  0.1120E-10  0.9210E-11  0.7550E-11  0.6710E-11
WAVELENGTH(A)= 
    32.046
 7 14 t 
excit   
    44.800     67.200    112.000    224.000    448.000   1120.000   2240.000   3360.000   4480.000   6720.000  11200.000  22400.000  44800.000  67200.000 
  0.1000E+11  0.3830E-14  0.5980E-13  0.4900E-12  0.2040E-11  0.3590E-11  0.4200E-11  0.3890E-11  0.3590E-11  0.3360E-11  0.3020E-11  0.2610E-11  0.2100E-11  0.1650E-11  0.1430E-11
  0.1000E+12  0.4390E-14  0.6610E-13  0.5130E-12  0.2040E-11  0.3560E-11  0.4150E-11  0.3840E-11  0.3540E-11  0.3310E-11  0.2970E-11  0.2570E-11  0.2070E-11  0.1640E-11  0.1420E-11
  0.1000E+13  0.4360E-14  0.6540E-13  0.5070E-12  0.2010E-11  0.3520E-11  0.4100E-11  0.3780E-11  0.3480E-11  0.3250E-11  0.2920E-11  0.2520E-11  0.2030E-11  0.1600E-11  0.1390E-11
  0.1000E+14  0.4330E-14  0.6480E-13  0.5010E-12  0.2000E-11  0.3490E-11  0.4070E-11  0.3750E-11  0.3450E-11  0.3220E-11  0.2890E-11  0.2490E-11  0.2000E-11  0.1580E-11  0.1370E-11
  0.1000E+15  0.4300E-14  0.6410E-13  0.4960E-12  0.1980E-11  0.3470E-11  0.4030E-11  0.3720E-11  0.3420E-11  0.3190E-11  0.2870E-11  0.2470E-11  0.1980E-11  0.1570E-11  0.1360E-11
  0.1000E+16  0.4260E-14  0.6330E-13  0.4880E-12  0.1930E-11  0.3350E-11  0.3850E-11  0.3530E-11  0.3240E-11  0.3020E-11  0.2710E-11  0.2340E-11  0.1890E-11  0.1500E-11  0.1300E-11
  0.1000E+17  0.4110E-14  0.5980E-13  0.4500E-12  0.1710E-11  0.2850E-11  0.3100E-11  0.2730E-11  0.2470E-11  0.2290E-11  0.2050E-11  0.1780E-11  0.1450E-11  0.1170E-11  0.1030E-11
WAVELENGTH(A)= 
    37.497
 7 14 t 
excit   
    44.800     67.200    112.000    224.000    448.000   1120.000   2240.000   3360.000   4480.000   6720.000  11200.000  22400.000  44800.000  67200.000 
  0.1000E+11  0.1770E-14  0.2640E-13  0.2090E-12  0.8600E-12  0.1520E-11  0.1810E-11  0.1720E-11  0.1600E-11  0.1510E-11  0.1370E-11  0.1200E-11  0.9820E-12  0.7900E-12  0.6920E-12
  0.1000E+12  0.1640E-14  0.2460E-13  0.1980E-12  0.8270E-12  0.1470E-11  0.1750E-11  0.1670E-11  0.1550E-11  0.1460E-11  0.1330E-11  0.1160E-11  0.9500E-12  0.7630E-12  0.6680E-12
  0.1000E+13  0.1600E-14  0.2400E-13  0.1940E-12  0.8150E-12  0.1450E-11  0.1730E-11  0.1640E-11  0.1530E-11  0.1440E-11  0.1310E-11  0.1140E-11  0.9290E-12  0.7450E-12  0.6520E-12
  0.1000E+14  0.1590E-14  0.2370E-13  0.1920E-12  0.8080E-12  0.1440E-11  0.1720E-11  0.1630E-11  0.1510E-11  0.1420E-11  0.1290E-11  0.1130E-11  0.9180E-12  0.7350E-12  0.6430E-12
  0.1000E+15  0.1580E-14  0.2360E-13  0.1910E-12  0.8030E-12  0.1430E-11  0.1700E-11  0.1610E-11  0.1490E-11  0.1400E-11  0.1280E-11  0.1110E-11  0.9050E-12  0.7250E-12  0.6340E-12
  0.1000E+16  0.1560E-14  0.2330E-13  0.1870E-12  0.7840E-12  0.1390E-11  0.1630E-11  0.1520E-11  0.1400E-11  0.1320E-11  0.1190E-11  0.1040E-11  0.8470E-12  0.6810E-12  0.5970E-12
  0.1000E+17  0.1520E-14  0.2220E-13  0.1750E-12  0.7030E-12  0.1190E-11  0.1290E-11  0.1140E-11  0.1030E-11  0.9610E-12  0.8660E-12  0.7550E-12  0.6230E-12  0.5110E-12  0.4540E-12
WAVELENGTH(A)= 
    45.356
 7 14 t 
excit   
    44.800     67.200    112.000    224.000    448.000   1120.000   2240.000   3360.000   4480.000   6720.000  11200.000  22400.000  44800.000  67200.000 
  0.1000E+11  0.1060E-31  0.1200E-24  0.4840E-19  0.6580E-15  0.6490E-13  0.8110E-12  0.1600E-11  0.1870E-11  0.1940E-11  0.1940E-11  0.1790E-11  0.1470E-11  0.1130E-11  0.9620E-12
  0.1000E+12  0.9810E-32  0.1120E-24  0.4580E-19  0.6330E-15  0.6290E-13  0.7880E-12  0.1560E-11  0.1810E-11  0.1890E-11  0.1880E-11  0.1730E-11  0.1420E-11  0.1090E-11  0.9290E-12
  0.1000E+13  0.9550E-32  0.1090E-24  0.4480E-19  0.6240E-15  0.6210E-13  0.7770E-12  0.1530E-11  0.1780E-11  0.1850E-11  0.1840E-11  0.1690E-11  0.1390E-11  0.1070E-11  0.9060E-12
  0.1000E+14  0.9450E-32  0.1080E-24  0.4440E-19  0.6190E-15  0.6170E-13  0.7710E-12  0.1520E-11  0.1770E-11  0.1830E-11  0.1830E-11  0.1670E-11  0.1370E-11  0.1050E-11  0.8920E-12
  0.1000E+15  0.9400E-32  0.1070E-24  0.4400E-19  0.6140E-15  0.6120E-13  0.7640E-12  0.1500E-11  0.1740E-11  0.1810E-11  0.1800E-11  0.1650E-11  0.1350E-11  0.1040E-11  0.8800E-12
  0.1000E+16  0.9310E-32  0.1060E-24  0.4320E-19  0.5990E-15  0.5930E-13  0.7290E-12  0.1410E-11  0.1630E-11  0.1690E-11  0.1680E-11  0.1540E-11  0.1260E-11  0.9750E-12  0.8280E-12
  0.1000E+17  0.8990E-32  0.1000E-24  0.4020E-19  0.5350E-15  0.5040E-13  0.5750E-12  0.1050E-11  0.1190E-11  0.1220E-11  0.1200E-11  0.1100E-11  0.9150E-12  0.7230E-12  0.6230E-12
WAVELENGTH(A)= 
    46.122
 7 14 t 
excit   
    44.800     67.200    112.000    224.000    448.000   1120.000   2240.000   3360.000   4480.000   6720.000  11200.000  22400.000  44800.000  67200.000 
  0.1000E+11  0.1330E-31  0.1510E-24  0.6100E-19  0.8300E-15  0.8190E-13  0.1020E-11  0.2020E-11  0.2360E-11  0.2450E-11  0.2450E-11  0.2250E-11  0.1850E-11  0.1430E-11  0.1210E-11
  0.1000E+12  0.1240E-31  0.1410E-24  0.5780E-19  0.7980E-15  0.7930E-13  0.9930E-12  0.1960E-11  0.2290E-11  0.2380E-11  0.2370E-11  0.2180E-11  0.1790E-11  0.1380E-11  0.1170E-11
  0.1000E+13  0.1200E-31  0.1380E-24  0.5650E-19  0.7870E-15  0.7830E-13  0.9800E-12  0.1930E-11  0.2250E-11  0.2330E-11  0.2330E-11  0.2130E-11  0.1750E-11  0.1350E-11  0.1140E-11
  0.1000E+14  0.1190E-31  0.1360E-24  0.5590E-19  0.7800E-15  0.7780E-13  0.9730E-12  0.1920E-11  0.2230E-11  0.2310E-11  0.2300E-11  0.2110E-11  0.1730E-11  0.1330E-11  0.1120E-11
  0.1000E+15  0.1190E-31  0.1350E-24  0.5550E-19  0.7750E-15  0.7720E-13  0.9630E-12  0.1890E-11  0.2200E-11  0.2280E-11  0.2270E-11  0.2080E-11  0.1700E-11  0.1310E-11  0.1110E-11
  0.1000E+16  0.1170E-31  0.1330E-24  0.5450E-19  0.7560E-15  0.7480E-13  0.9200E-12  0.1780E-11  0.2060E-11  0.2130E-11  0.2120E-11  0.1940E-11  0.1590E-11  0.1230E-11  0.1040E-11
  0.1000E+17  0.1130E-31  0.1260E-24  0.5070E-19  0.6740E-15  0.6360E-13  0.7250E-12  0.1330E-11  0.1500E-11  0.1540E-11  0.1520E-11  0.1390E-11  0.1150E-11  0.9110E-12  0.7850E-12
WAVELENGTH(A)= 
    46.127
 7 14 t 
excit   
    44.800     67.200    112.000    224.000    448.000   1120.000   2240.000   3360.000   4480.000   6720.000  11200.000  22400.000  44800.000  67200.000 
  0.1000E+11  0.1020E-31  0.1160E-24  0.4650E-19  0.6330E-15  0.6250E-13  0.7800E-12  0.1540E-11  0.1800E-11  0.1870E-11  0.1870E-11  0.1720E-11  0.1410E-11  0.1090E-11  0.9250E-12
  0.1000E+12  0.9440E-32  0.1080E-24  0.4410E-19  0.6090E-15  0.6050E-13  0.7580E-12  0.1500E-11  0.1740E-11  0.1810E-11  0.1810E-11  0.1660E-11  0.1360E-11  0.1050E-11  0.8930E-12
  0.1000E+13  0.9180E-32  0.1050E-24  0.4310E-19  0.6000E-15  0.5970E-13  0.7470E-12  0.1470E-11  0.1710E-11  0.1780E-11  0.1770E-11  0.1630E-11  0.1330E-11  0.1030E-11  0.8710E-12
  0.1000E+14  0.9090E-32  0.1040E-24  0.4270E-19  0.5950E-15  0.5930E-13  0.7420E-12  0.1460E-11  0.1700E-11  0.1760E-11  0.1760E-11  0.1610E-11  0.1320E-11  0.1010E-11  0.8580E-12
  0.1000E+15  0.9040E-32  0.1030E-24  0.4240E-19  0.5910E-15  0.5890E-13  0.7350E-12  0.1440E-11  0.1680E-11  0.1740E-11  0.1730E-11  0.1590E-11  0.1300E-11  0.1000E-11  0.8470E-12
  0.1000E+16  0.8960E-32  0.1020E-24  0.4160E-19  0.5770E-15  0.5700E-13  0.7020E-12  0.1360E-11  0.1570E-11  0.1630E-11  0.1620E-11  0.1480E-11  0.1210E-11  0.9380E-12  0.7960E-12
  0.1000E+17  0.8640E-32  0.9650E-25  0.3870E-19  0.5150E-15  0.4850E-13  0.5530E-12  0.1010E-11  0.1140E-11  0.1170E-11  0.1160E-11  0.1060E-11  0.8800E-12  0.6950E-12  0.5990E-12
WAVELENGTH(A)= 
   137.617
 7 14 t 
excit   
    44.800     67.200    112.000    224.000    448.000   1120.000   2240.000   3360.000   4480.000   6720.000  11200.000  22400.000  44800.000  67200.000 
  0.1000E+11  0.1230E-12  0.2110E-12  0.3710E-12  0.7440E-12  0.1150E-11  0.1740E-11  0.2200E-11  0.2370E-11  0.2430E-11  0.2450E-11  0.2380E-11  0.2210E-11  0.1960E-11  0.1800E-11
  0.1000E+12  0.1190E-12  0.2040E-12  0.3590E-12  0.7270E-12  0.1130E-11  0.1720E-11  0.2190E-11  0.2350E-11  0.2410E-11  0.2430E-11  0.2370E-11  0.2180E-11  0.1940E-11  0.1780E-11
  0.1000E+13  0.1180E-12  0.2020E-12  0.3600E-12  0.7460E-12  0.1170E-11  0.1790E-11  0.2270E-11  0.2440E-11  0.2500E-11  0.2510E-11  0.2440E-11  0.2240E-11  0.1980E-11  0.1820E-11
  0.1000E+14  0.1240E-12  0.2110E-12  0.3770E-12  0.7690E-12  0.1180E-11  0.1790E-11  0.2260E-11  0.2430E-11  0.2480E-11  0.2500E-11  0.2430E-11  0.2240E-11  0.1990E-11  0.1830E-11
  0.1000E+15  0.1260E-12  0.2120E-12  0.3690E-12  0.7060E-12  0.1020E-11  0.1470E-11  0.1830E-11  0.1960E-11  0.2020E-11  0.2040E-11  0.2010E-11  0.1900E-11  0.1720E-11  0.1600E-11
  0.1000E+16  0.1070E-12  0.1750E-12  0.2710E-12  0.3890E-12  0.4630E-12  0.5980E-12  0.7190E-12  0.7690E-12  0.7930E-12  0.8140E-12  0.8230E-12  0.8140E-12  0.7860E-12  0.7620E-12
  0.1000E+17  0.4620E-13  0.7020E-13  0.8850E-13  0.1040E-12  0.1200E-12  0.1510E-12  0.1740E-12  0.1820E-12  0.1860E-12  0.1890E-12  0.1890E-12  0.1870E-12  0.1820E-12  0.1780E-12
WAVELENGTH(A)= 
   148.121
 7 14 t 
excit   
    44.800     67.200    112.000    224.000    448.000   1120.000   2240.000   3360.000   4480.000   6720.000  11200.000  22400.000  44800.000  67200.000 
  0.1000E+11  0.1390E-12  0.2380E-12  0.4270E-12  0.9400E-12  0.1540E-11  0.2230E-11  0.2630E-11  0.2740E-11  0.2750E-11  0.2690E-11  0.2550E-11  0.2280E-11  0.1960E-11  0.1780E-11
  0.1000E+12  0.1390E-12  0.2400E-12  0.4460E-12  0.9900E-12  0.1610E-11  0.2300E-11  0.2700E-11  0.2800E-11  0.2810E-11  0.2750E-11  0.2600E-11  0.2320E-11  0.2000E-11  0.1820E-11
  0.1000E+13  0.1490E-12  0.2560E-12  0.4640E-12  0.1000E-11  0.1620E-11  0.2310E-11  0.2700E-11  0.2790E-11  0.2800E-11  0.2740E-11  0.2590E-11  0.2310E-11  0.1990E-11  0.1800E-11
  0.1000E+14  0.1540E-12  0.2640E-12  0.4750E-12  0.1020E-11  0.1640E-11  0.2340E-11  0.2740E-11  0.2830E-11  0.2830E-11  0.2770E-11  0.2620E-11  0.2330E-11  0.2000E-11  0.1810E-11
  0.1000E+15  0.1710E-12  0.2940E-12  0.5140E-12  0.1050E-11  0.1630E-11  0.2280E-11  0.2660E-11  0.2750E-11  0.2760E-11  0.2710E-11  0.2570E-11  0.2300E-11  0.2000E-11  0.1810E-11
  0.1000E+16  0.1850E-12  0.3140E-12  0.5040E-12  0.8800E-12  0.1220E-11  0.1580E-11  0.1800E-11  0.1870E-11  0.1890E-11  0.1870E-11  0.1820E-11  0.1690E-11  0.1530E-11  0.1430E-11
  0.1000E+17  0.1410E-12  0.2270E-12  0.2960E-12  0.3550E-12  0.4110E-12  0.4920E-12  0.5470E-12  0.5630E-12  0.5700E-12  0.5710E-12  0.5660E-12  0.5480E-12  0.5220E-12  0.5050E-12
WAVELENGTH(A)= 
   159.236
 7 14 t 
excit   
    44.800     67.200    112.000    224.000    448.000   1120.000   2240.000   3360.000   4480.000   6720.000  11200.000  22400.000  44800.000  67200.000 
  0.1000E+11  0.2750E-12  0.4270E-12  0.6700E-12  0.1220E-11  0.1840E-11  0.2890E-11  0.3790E-11  0.4140E-11  0.4280E-11  0.4350E-11  0.4290E-11  0.4010E-11  0.3600E-11  0.3330E-11
  0.1000E+12  0.2600E-12  0.4060E-12  0.6440E-12  0.1190E-11  0.1800E-11  0.2830E-11  0.3710E-11  0.4050E-11  0.4180E-11  0.4250E-11  0.4190E-11  0.3920E-11  0.3520E-11  0.3250E-11
  0.1000E+13  0.2540E-12  0.3970E-12  0.6330E-12  0.1170E-11  0.1780E-11  0.2800E-11  0.3670E-11  0.3990E-11  0.4120E-11  0.4190E-11  0.4120E-11  0.3840E-11  0.3450E-11  0.3180E-11
  0.1000E+14  0.2530E-12  0.3940E-12  0.6290E-12  0.1170E-11  0.1780E-11  0.2800E-11  0.3660E-11  0.3980E-11  0.4110E-11  0.4170E-11  0.4090E-11  0.3810E-11  0.3410E-11  0.3150E-11
  0.1000E+15  0.2530E-12  0.3950E-12  0.6310E-12  0.1180E-11  0.1800E-11  0.2830E-11  0.3680E-11  0.4000E-11  0.4130E-11  0.4180E-11  0.4100E-11  0.3820E-11  0.3410E-11  0.3140E-11
  0.1000E+16  0.2550E-12  0.3970E-12  0.6360E-12  0.1200E-11  0.1830E-11  0.2800E-11  0.3570E-11  0.3850E-11  0.3950E-11  0.3990E-11  0.3920E-11  0.3660E-11  0.3280E-11  0.3040E-11
  0.1000E+17  0.2510E-12  0.3870E-12  0.5900E-12  0.9680E-12  0.1330E-11  0.1820E-11  0.2140E-11  0.2250E-11  0.2290E-11  0.2310E-11  0.2280E-11  0.2190E-11  0.2050E-11  0.1960E-11
WAVELENGTH(A)= 
   174.260
 7 14 t 
excit   
    44.800     67.200    112.000    224.000    448.000   1120.000   2240.000   3360.000   4480.000   6720.000  11200.000  22400.000  44800.000  67200.000 
  0.1000E+11  0.5090E-13  0.8200E-13  0.1710E-12  0.4400E-12  0.7540E-12  0.1350E-11  0.1910E-11  0.2140E-11  0.2250E-11  0.2330E-11  0.2340E-11  0.2230E-11  0.2030E-11  0.1890E-11
  0.1000E+12  0.4670E-13  0.7540E-13  0.1570E-12  0.3960E-12  0.6480E-12  0.1110E-11  0.1540E-11  0.1730E-11  0.1820E-11  0.1890E-11  0.1920E-11  0.1860E-11  0.1730E-11  0.1630E-11
  0.1000E+13  0.4060E-13  0.6370E-13  0.1220E-12  0.2370E-12  0.3030E-12  0.4320E-12  0.5660E-12  0.6290E-12  0.6650E-12  0.7060E-12  0.7410E-12  0.7690E-12  0.7740E-12  0.7660E-12
  0.1000E+14  0.1950E-13  0.2720E-13  0.3940E-13  0.4790E-13  0.4830E-13  0.6150E-13  0.7800E-13  0.8630E-13  0.9140E-13  0.9790E-13  0.1050E-12  0.1130E-12  0.1190E-12  0.1220E-12
  0.1000E+15  0.3270E-14  0.4190E-14  0.5270E-14  0.5630E-14  0.5530E-14  0.6950E-14  0.8720E-14  0.9610E-14  0.1020E-13  0.1080E-13  0.1160E-13  0.1240E-13  0.1310E-13  0.1350E-13
  0.1000E+16  0.4450E-15  0.5700E-15  0.6980E-15  0.7590E-15  0.7870E-15  0.1010E-14  0.1260E-14  0.1370E-14  0.1440E-14  0.1510E-14  0.1580E-14  0.1650E-14  0.1700E-14  0.1710E-14
  0.1000E+17  0.8580E-16  0.1090E-15  0.1270E-15  0.1500E-15  0.1720E-15  0.2200E-15  0.2610E-15  0.2770E-15  0.2860E-15  0.2960E-15  0.3050E-15  0.3110E-15  0.3140E-15  0.3130E-15
WAVELENGTH(A)= 
   175.351
 7 14 t 
excit   
    44.800     67.200    112.000    224.000    448.000   1120.000   2240.000   3360.000   4480.000   6720.000  11200.000  22400.000  44800.000  67200.000 
  0.1000E+11  0.4470E-12  0.6630E-12  0.1000E-11  0.1820E-11  0.2820E-11  0.4610E-11  0.6190E-11  0.6810E-11  0.7090E-11  0.7260E-11  0.7210E-11  0.6800E-11  0.6160E-11  0.5710E-11
  0.1000E+12  0.4150E-12  0.6210E-12  0.9510E-12  0.1770E-11  0.2780E-11  0.4600E-11  0.6210E-11  0.6840E-11  0.7110E-11  0.7280E-11  0.7210E-11  0.6770E-11  0.6110E-11  0.5650E-11
  0.1000E+13  0.4060E-12  0.6080E-12  0.9450E-12  0.1830E-11  0.2960E-11  0.4970E-11  0.6730E-11  0.7420E-11  0.7710E-11  0.7890E-11  0.7810E-11  0.7320E-11  0.6570E-11  0.6060E-11
  0.1000E+14  0.4100E-12  0.6150E-12  0.9740E-12  0.1920E-11  0.3100E-11  0.5180E-11  0.7000E-11  0.7710E-11  0.8020E-11  0.8210E-11  0.8140E-11  0.7660E-11  0.6910E-11  0.6390E-11
  0.1000E+15  0.4140E-12  0.6210E-12  0.9870E-12  0.1960E-11  0.3150E-11  0.5240E-11  0.7030E-11  0.7730E-11  0.8030E-11  0.8210E-11  0.8140E-11  0.7660E-11  0.6920E-11  0.6400E-11
  0.1000E+16  0.4130E-12  0.6190E-12  0.9920E-12  0.1980E-11  0.3110E-11  0.4910E-11  0.6390E-11  0.6950E-11  0.7180E-11  0.7330E-11  0.7280E-11  0.6910E-11  0.6310E-11  0.5890E-11
  0.1000E+17  0.3890E-12  0.5740E-12  0.8820E-12  0.1470E-11  0.1950E-11  0.2600E-11  0.3060E-11  0.3230E-11  0.3300E-11  0.3360E-11  0.3380E-11  0.3340E-11  0.3220E-11  0.3120E-11
WAVELENGTH(A)= 
   177.860
 7 14 t 
excit   
    44.800     67.200    112.000    224.000    448.000   1120.000   2240.000   3360.000   4480.000   6720.000  11200.000  22400.000  44800.000  67200.000 
  0.1000E+11  0.1330E-12  0.2180E-12  0.3860E-12  0.8440E-12  0.1410E-11  0.2350E-11  0.3140E-11  0.3430E-11  0.3550E-11  0.3600E-11  0.3530E-11  0.3290E-11  0.2930E-11  0.2690E-11
  0.1000E+12  0.1620E-12  0.2590E-12  0.4400E-12  0.9140E-12  0.1490E-11  0.2430E-11  0.3210E-11  0.3490E-11  0.3610E-11  0.3650E-11  0.3580E-11  0.3330E-11  0.2970E-11  0.2730E-11
  0.1000E+13  0.1790E-12  0.2810E-12  0.4620E-12  0.9290E-12  0.1500E-11  0.2430E-11  0.3190E-11  0.3470E-11  0.3580E-11  0.3620E-11  0.3550E-11  0.3290E-11  0.2930E-11  0.2700E-11
  0.1000E+14  0.1820E-12  0.2860E-12  0.4680E-12  0.9500E-12  0.1550E-11  0.2520E-11  0.3290E-11  0.3560E-11  0.3670E-11  0.3700E-11  0.3610E-11  0.3330E-11  0.2950E-11  0.2710E-11
  0.1000E+15  0.1840E-12  0.2900E-12  0.4890E-12  0.1020E-11  0.1660E-11  0.2670E-11  0.3460E-11  0.3740E-11  0.3840E-11  0.3870E-11  0.3760E-11  0.3470E-11  0.3070E-11  0.2810E-11
  0.1000E+16  0.1870E-12  0.2980E-12  0.5160E-12  0.1110E-11  0.1840E-11  0.2920E-11  0.3700E-11  0.3960E-11  0.4050E-11  0.4060E-11  0.3930E-11  0.3610E-11  0.3190E-11  0.2920E-11
  0.1000E+17  0.1900E-12  0.3040E-12  0.5350E-12  0.1100E-11  0.1660E-11  0.2330E-11  0.2740E-11  0.2860E-11  0.2900E-11  0.2900E-11  0.2840E-11  0.2670E-11  0.2450E-11  0.2300E-11
WAVELENGTH(A)= 
   197.181
 7 14 t 
excit   
    44.800     67.200    112.000    224.000    448.000   1120.000   2240.000   3360.000   4480.000   6720.000  11200.000  22400.000  44800.000  67200.000 
  0.1000E+11  0.2030E-12  0.3400E-12  0.7730E-12  0.2240E-11  0.4040E-11  0.7090E-11  0.9790E-11  0.1090E-10  0.1140E-10  0.1170E-10  0.1170E-10  0.1110E-10  0.1010E-10  0.9420E-11
  0.1000E+12  0.2190E-12  0.3540E-12  0.7650E-12  0.2180E-11  0.3940E-11  0.6940E-11  0.9570E-11  0.1060E-10  0.1110E-10  0.1150E-10  0.1140E-10  0.1080E-10  0.9850E-11  0.9150E-11
  0.1000E+13  0.2170E-12  0.3500E-12  0.7560E-12  0.2170E-11  0.3950E-11  0.6950E-11  0.9580E-11  0.1060E-10  0.1110E-10  0.1140E-10  0.1140E-10  0.1080E-10  0.9770E-11  0.9070E-11
  0.1000E+14  0.2190E-12  0.3520E-12  0.7600E-12  0.2180E-11  0.3960E-11  0.6960E-11  0.9580E-11  0.1060E-10  0.1110E-10  0.1140E-10  0.1140E-10  0.1080E-10  0.9750E-11  0.9040E-11
  0.1000E+15  0.2200E-12  0.3520E-12  0.7580E-12  0.2170E-11  0.3930E-11  0.6900E-11  0.9470E-11  0.1050E-10  0.1100E-10  0.1130E-10  0.1120E-10  0.1060E-10  0.9630E-11  0.8940E-11
  0.1000E+16  0.2160E-12  0.3440E-12  0.7400E-12  0.2140E-11  0.3910E-11  0.6820E-11  0.9240E-11  0.1020E-10  0.1060E-10  0.1080E-10  0.1070E-10  0.1010E-10  0.9190E-11  0.8530E-11
  0.1000E+17  0.2110E-12  0.3360E-12  0.7540E-12  0.2240E-11  0.3920E-11  0.6080E-11  0.7520E-11  0.8010E-11  0.8200E-11  0.8300E-11  0.8220E-11  0.7850E-11  0.7260E-11  0.6840E-11
WAVELENGTH(A)= 
   201.381
 7 14 t 
excit   
    44.800     67.200    112.000    224.000    448.000   1120.000   2240.000   3360.000   4480.000   6720.000  11200.000  22400.000  44800.000  67200.000 
  0.1000E+11  0.2980E-12  0.4330E-12  0.7260E-12  0.1590E-11  0.2620E-11  0.4090E-11  0.5250E-11  0.5680E-11  0.5850E-11  0.5940E-11  0.5840E-11  0.5460E-11  0.4900E-11  0.4530E-11
  0.1000E+12  0.2900E-12  0.4220E-12  0.7120E-12  0.1560E-11  0.2570E-11  0.4010E-11  0.5140E-11  0.5550E-11  0.5720E-11  0.5800E-11  0.5700E-11  0.5320E-11  0.4770E-11  0.4410E-11
  0.1000E+13  0.2850E-12  0.4150E-12  0.7020E-12  0.1550E-11  0.2550E-11  0.3970E-11  0.5070E-11  0.5480E-11  0.5630E-11  0.5710E-11  0.5600E-11  0.5210E-11  0.4670E-11  0.4320E-11
  0.1000E+14  0.2830E-12  0.4130E-12  0.6990E-12  0.1550E-11  0.2550E-11  0.3970E-11  0.5060E-11  0.5460E-11  0.5610E-11  0.5680E-11  0.5560E-11  0.5170E-11  0.4620E-11  0.4270E-11
  0.1000E+15  0.2840E-12  0.4150E-12  0.7020E-12  0.1550E-11  0.2560E-11  0.3980E-11  0.5070E-11  0.5460E-11  0.5610E-11  0.5680E-11  0.5560E-11  0.5170E-11  0.4620E-11  0.4260E-11
  0.1000E+16  0.2850E-12  0.4150E-12  0.7010E-12  0.1560E-11  0.2580E-11  0.4010E-11  0.5070E-11  0.5450E-11  0.5590E-11  0.5640E-11  0.5510E-11  0.5110E-11  0.4570E-11  0.4210E-11
  0.1000E+17  0.2740E-12  0.3960E-12  0.6780E-12  0.1520E-11  0.2470E-11  0.3600E-11  0.4310E-11  0.4540E-11  0.4610E-11  0.4620E-11  0.4530E-11  0.4260E-11  0.3870E-11  0.3620E-11
WAVELENGTH(A)= 
   210.414
 7 14 t 
excit   
    44.800     67.200    112.000    224.000    448.000   1120.000   2240.000   3360.000   4480.000   6720.000  11200.000  22400.000  44800.000  67200.000 
  0.1000E+11  0.2840E-13  0.5250E-13  0.1440E-12  0.4910E-12  0.9220E-12  0.1400E-11  0.1670E-11  0.1750E-11  0.1760E-11  0.1740E-11  0.1660E-11  0.1490E-11  0.1290E-11  0.1170E-11
  0.1000E+12  0.3250E-13  0.5830E-13  0.1530E-12  0.5060E-12  0.9420E-12  0.1440E-11  0.1730E-11  0.1810E-11  0.1830E-11  0.1810E-11  0.1730E-11  0.1570E-11  0.1370E-11  0.1250E-11
  0.1000E+13  0.3260E-13  0.5850E-13  0.1540E-12  0.5090E-12  0.9490E-12  0.1450E-11  0.1740E-11  0.1820E-11  0.1850E-11  0.1820E-11  0.1740E-11  0.1580E-11  0.1380E-11  0.1260E-11
  0.1000E+14  0.3260E-13  0.5860E-13  0.1570E-12  0.5300E-12  0.9950E-12  0.1520E-11  0.1820E-11  0.1910E-11  0.1930E-11  0.1900E-11  0.1810E-11  0.1630E-11  0.1420E-11  0.1290E-11
  0.1000E+15  0.3280E-13  0.6060E-13  0.1730E-12  0.5760E-12  0.1060E-11  0.1600E-11  0.1920E-11  0.2010E-11  0.2030E-11  0.2000E-11  0.1910E-11  0.1720E-11  0.1500E-11  0.1360E-11
  0.1000E+16  0.3310E-13  0.6270E-13  0.1840E-12  0.5990E-12  0.1100E-11  0.1680E-11  0.2020E-11  0.2110E-11  0.2130E-11  0.2100E-11  0.2010E-11  0.1810E-11  0.1570E-11  0.1430E-11
  0.1000E+17  0.3370E-13  0.6440E-13  0.1960E-12  0.6400E-12  0.1140E-11  0.1660E-11  0.1940E-11  0.2010E-11  0.2020E-11  0.2000E-11  0.1920E-11  0.1760E-11  0.1550E-11  0.1430E-11
WAVELENGTH(A)= 
   226.147
 7 14 t 
excit   
    44.800     67.200    112.000    224.000    448.000   1120.000   2240.000   3360.000   4480.000   6720.000  11200.000  22400.000  44800.000  67200.000 
  0.1000E+11  0.9740E-13  0.1420E-12  0.2380E-12  0.5210E-12  0.8560E-12  0.1340E-11  0.1720E-11  0.1860E-11  0.1910E-11  0.1940E-11  0.1910E-11  0.1780E-11  0.1600E-11  0.1480E-11
  0.1000E+12  0.9470E-13  0.1380E-12  0.2330E-12  0.5120E-12  0.8410E-12  0.1310E-11  0.1680E-11  0.1820E-11  0.1870E-11  0.1900E-11  0.1860E-11  0.1740E-11  0.1560E-11  0.1440E-11
  0.1000E+13  0.9320E-13  0.1360E-12  0.2300E-12  0.5070E-12  0.8340E-12  0.1300E-11  0.1660E-11  0.1790E-11  0.1840E-11  0.1870E-11  0.1830E-11  0.1700E-11  0.1530E-11  0.1410E-11
  0.1000E+14  0.9270E-13  0.1350E-12  0.2280E-12  0.5050E-12  0.8330E-12  0.1300E-11  0.1650E-11  0.1780E-11  0.1830E-11  0.1860E-11  0.1820E-11  0.1690E-11  0.1510E-11  0.1400E-11
  0.1000E+15  0.9300E-13  0.1360E-12  0.2290E-12  0.5070E-12  0.8360E-12  0.1300E-11  0.1660E-11  0.1790E-11  0.1840E-11  0.1860E-11  0.1820E-11  0.1690E-11  0.1510E-11  0.1390E-11
  0.1000E+16  0.9310E-13  0.1360E-12  0.2290E-12  0.5090E-12  0.8440E-12  0.1310E-11  0.1660E-11  0.1780E-11  0.1830E-11  0.1840E-11  0.1800E-11  0.1670E-11  0.1490E-11  0.1380E-11
  0.1000E+17  0.8950E-13  0.1300E-12  0.2220E-12  0.4980E-12  0.8060E-12  0.1180E-11  0.1410E-11  0.1480E-11  0.1510E-11  0.1510E-11  0.1480E-11  0.1390E-11  0.1270E-11  0.1180E-11
WAVELENGTH(A)= 
   792.849
 7 14 t 
excit   
    44.800     67.200    112.000    224.000    448.000   1120.000   2240.000   3360.000   4480.000   6720.000  11200.000  22400.000  44800.000  67200.000 
  0.1000E+11  0.4910E-12  0.6650E-12  0.1420E-11  0.3670E-11  0.5440E-11  0.6150E-11  0.6000E-11  0.5780E-11  0.5590E-11  0.5260E-11  0.4840E-11  0.4230E-11  0.3600E-11  0.3250E-11
  0.1000E+12  0.3770E-12  0.4670E-12  0.7100E-12  0.1020E-11  0.1140E-11  0.1170E-11  0.1150E-11  0.1130E-11  0.1120E-11  0.1090E-11  0.1060E-11  0.1020E-11  0.9640E-12  0.9320E-12
  0.1000E+13  0.8710E-13  0.9870E-13  0.1130E-12  0.1230E-12  0.1280E-12  0.1280E-12  0.1250E-12  0.1240E-12  0.1220E-12  0.1200E-12  0.1190E-12  0.1160E-12  0.1140E-12  0.1120E-12
  0.1000E+14  0.9950E-14  0.1100E-13  0.1190E-13  0.1250E-13  0.1280E-13  0.1280E-13  0.1250E-13  0.1240E-13  0.1230E-13  0.1210E-13  0.1190E-13  0.1170E-13  0.1150E-13  0.1130E-13
  0.1000E+15  0.1000E-14  0.1110E-14  0.1190E-14  0.1240E-14  0.1280E-14  0.1270E-14  0.1250E-14  0.1230E-14  0.1220E-14  0.1200E-14  0.1190E-14  0.1160E-14  0.1140E-14  0.1130E-14
  0.1000E+16  0.9950E-16  0.1090E-15  0.1170E-15  0.1210E-15  0.1230E-15  0.1210E-15  0.1180E-15  0.1160E-15  0.1150E-15  0.1130E-15  0.1120E-15  0.1110E-15  0.1090E-15  0.1090E-15
  0.1000E+17  0.9590E-17  0.1030E-16  0.1070E-16  0.1060E-16  0.1030E-16  0.9560E-17  0.8920E-17  0.8660E-17  0.8530E-17  0.8390E-17  0.8340E-17  0.8350E-17  0.8390E-17  0.8460E-17
