 50  7 14
WAVELENGTH(A)= 
    31.968
 7 14 t 
excit   
    10.800     16.200     26.900     53.900    108.000    269.000    539.000    808.000   1080.000   1620.000   2690.000   5390.000  10800.000  16200.000 
  0.1000E+11  0.7400E-25  0.9560E-20  0.1080E-15  0.1020E-12  0.2720E-11  0.1660E-10  0.2860E-10  0.3400E-10  0.3710E-10  0.4050E-10  0.4320E-10  0.4450E-10  0.4260E-10  0.4060E-10
  0.1000E+12  0.7040E-25  0.9020E-20  0.1010E-15  0.9500E-13  0.2420E-11  0.1260E-10  0.1970E-10  0.2280E-10  0.2460E-10  0.2670E-10  0.2860E-10  0.3020E-10  0.3000E-10  0.2930E-10
  0.1000E+13  0.5710E-25  0.6860E-20  0.7190E-16  0.6330E-13  0.1180E-11  0.3040E-11  0.3750E-11  0.4120E-11  0.4370E-11  0.4730E-11  0.5160E-11  0.5690E-11  0.6060E-11  0.6240E-11
  0.1000E+14  0.1820E-25  0.1830E-20  0.1640E-16  0.1240E-13  0.1710E-12  0.4830E-12  0.7210E-12  0.8450E-12  0.9250E-12  0.1030E-11  0.1130E-11  0.1220E-11  0.1240E-11  0.1230E-11
  0.1000E+15  0.7630E-26  0.7110E-21  0.5970E-17  0.4280E-14  0.6980E-13  0.2990E-12  0.5020E-12  0.6040E-12  0.6680E-12  0.7460E-12  0.8200E-12  0.8730E-12  0.8620E-12  0.8350E-12
  0.1000E+16  0.7300E-26  0.6620E-21  0.5420E-17  0.3800E-14  0.6480E-13  0.2970E-12  0.5010E-12  0.6020E-12  0.6640E-12  0.7380E-12  0.8060E-12  0.8520E-12  0.8350E-12  0.8040E-12
  0.1000E+17  0.1190E-25  0.1010E-20  0.7520E-17  0.4740E-14  0.8140E-13  0.3730E-12  0.6080E-12  0.7150E-12  0.7750E-12  0.8420E-12  0.8970E-12  0.9210E-12  0.8830E-12  0.8420E-12
WAVELENGTH(A)= 
    32.062
 7 14 t 
excit   
    10.800     16.200     26.900     53.900    108.000    269.000    539.000    808.000   1080.000   1620.000   2690.000   5390.000  10800.000  16200.000 
  0.1000E+11  0.2230E-25  0.2800E-20  0.3050E-16  0.2840E-13  0.7480E-12  0.4540E-11  0.7790E-11  0.9260E-11  0.1010E-10  0.1100E-10  0.1180E-10  0.1200E-10  0.1160E-10  0.1110E-10
  0.1000E+12  0.2120E-25  0.2640E-20  0.2860E-16  0.2640E-13  0.6670E-12  0.3490E-11  0.5440E-11  0.6280E-11  0.6790E-11  0.7370E-11  0.7900E-11  0.8270E-11  0.8240E-11  0.8060E-11
  0.1000E+13  0.1750E-25  0.2040E-20  0.2080E-16  0.1790E-13  0.3380E-12  0.9380E-12  0.1200E-11  0.1330E-11  0.1410E-11  0.1530E-11  0.1660E-11  0.1800E-11  0.1890E-11  0.1930E-11
  0.1000E+14  0.6650E-26  0.6500E-21  0.5670E-17  0.4240E-14  0.6330E-13  0.2020E-12  0.3060E-12  0.3580E-12  0.3900E-12  0.4300E-12  0.4680E-12  0.4970E-12  0.4990E-12  0.4910E-12
  0.1000E+15  0.3390E-26  0.3060E-21  0.2490E-17  0.1770E-14  0.3050E-13  0.1370E-12  0.2270E-12  0.2710E-12  0.2980E-12  0.3300E-12  0.3590E-12  0.3760E-12  0.3690E-12  0.3550E-12
  0.1000E+16  0.3370E-26  0.2960E-21  0.2350E-17  0.1620E-14  0.2900E-13  0.1360E-12  0.2270E-12  0.2710E-12  0.2970E-12  0.3270E-12  0.3540E-12  0.3680E-12  0.3580E-12  0.3440E-12
  0.1000E+17  0.5480E-26  0.4530E-21  0.3270E-17  0.2030E-14  0.3600E-13  0.1670E-12  0.2700E-12  0.3150E-12  0.3400E-12  0.3670E-12  0.3890E-12  0.3940E-12  0.3770E-12  0.3580E-12
WAVELENGTH(A)= 
    32.108
 7 14 t 
excit   
    10.800     16.200     26.900     53.900    108.000    269.000    539.000    808.000   1080.000   1620.000   2690.000   5390.000  10800.000  16200.000 
  0.1000E+11  0.1880E-25  0.2430E-20  0.2740E-16  0.2600E-13  0.6910E-12  0.4210E-11  0.7260E-11  0.8650E-11  0.9440E-11  0.1030E-10  0.1100E-10  0.1130E-10  0.1080E-10  0.1030E-10
  0.1000E+12  0.1790E-25  0.2290E-20  0.2560E-16  0.2410E-13  0.6150E-12  0.3210E-11  0.5020E-11  0.5800E-11  0.6250E-11  0.6780E-11  0.7280E-11  0.7680E-11  0.7620E-11  0.7450E-11
  0.1000E+13  0.1450E-25  0.1740E-20  0.1830E-16  0.1610E-13  0.3000E-12  0.7720E-12  0.9530E-12  0.1050E-11  0.1110E-11  0.1200E-11  0.1310E-11  0.1450E-11  0.1540E-11  0.1590E-11
  0.1000E+14  0.4630E-26  0.4650E-21  0.4160E-17  0.3160E-14  0.4350E-13  0.1230E-12  0.1830E-12  0.2150E-12  0.2350E-12  0.2610E-12  0.2870E-12  0.3100E-12  0.3160E-12  0.3130E-12
  0.1000E+15  0.1940E-26  0.1810E-21  0.1520E-17  0.1090E-14  0.1770E-13  0.7610E-13  0.1280E-12  0.1540E-12  0.1700E-12  0.1900E-12  0.2080E-12  0.2220E-12  0.2190E-12  0.2120E-12
  0.1000E+16  0.1860E-26  0.1680E-21  0.1380E-17  0.9660E-15  0.1650E-13  0.7550E-13  0.1270E-12  0.1530E-12  0.1690E-12  0.1880E-12  0.2050E-12  0.2170E-12  0.2120E-12  0.2040E-12
  0.1000E+17  0.3020E-26  0.2580E-21  0.1910E-17  0.1210E-14  0.2070E-13  0.9490E-13  0.1550E-12  0.1820E-12  0.1970E-12  0.2140E-12  0.2280E-12  0.2340E-12  0.2250E-12  0.2140E-12
WAVELENGTH(A)= 
    32.296
 7 14 t 
excit   
    10.800     16.200     26.900     53.900    108.000    269.000    539.000    808.000   1080.000   1620.000   2690.000   5390.000  10800.000  16200.000 
  0.1000E+11  0.6860E-25  0.7860E-20  0.8040E-16  0.7100E-13  0.1820E-11  0.1090E-10  0.1860E-10  0.2210E-10  0.2410E-10  0.2620E-10  0.2800E-10  0.2860E-10  0.2750E-10  0.2630E-10
  0.1000E+12  0.6530E-25  0.7420E-20  0.7530E-16  0.6590E-13  0.1620E-11  0.8360E-11  0.1300E-10  0.1500E-10  0.1610E-10  0.1750E-10  0.1880E-10  0.1970E-10  0.1960E-10  0.1910E-10
  0.1000E+13  0.5350E-25  0.5700E-20  0.5440E-16  0.4450E-13  0.8070E-12  0.2050E-11  0.2510E-11  0.2750E-11  0.2910E-11  0.3150E-11  0.3440E-11  0.3790E-11  0.4060E-11  0.4180E-11
  0.1000E+14  0.1730E-25  0.1550E-20  0.1260E-16  0.8880E-14  0.1160E-12  0.3030E-12  0.4410E-12  0.5160E-12  0.5640E-12  0.6270E-12  0.6930E-12  0.7530E-12  0.7750E-12  0.7730E-12
  0.1000E+15  0.6910E-26  0.5710E-21  0.4360E-17  0.2900E-14  0.4370E-13  0.1760E-12  0.2930E-12  0.3530E-12  0.3910E-12  0.4390E-12  0.4850E-12  0.5190E-12  0.5180E-12  0.5030E-12
  0.1000E+16  0.6320E-26  0.5110E-21  0.3810E-17  0.2490E-14  0.3970E-13  0.1740E-12  0.2920E-12  0.3510E-12  0.3880E-12  0.4330E-12  0.4760E-12  0.5050E-12  0.4990E-12  0.4830E-12
  0.1000E+17  0.9350E-26  0.7160E-21  0.4920E-17  0.2950E-14  0.4880E-13  0.2200E-12  0.3570E-12  0.4210E-12  0.4580E-12  0.5000E-12  0.5350E-12  0.5510E-12  0.5330E-12  0.5090E-12
WAVELENGTH(A)= 
    32.321
 7 14 t 
excit   
    10.800     16.200     26.900     53.900    108.000    269.000    539.000    808.000   1080.000   1620.000   2690.000   5390.000  10800.000  16200.000 
  0.1000E+11  0.1660E-25  0.1980E-20  0.2090E-16  0.1900E-13  0.4940E-12  0.3020E-11  0.5200E-11  0.6230E-11  0.6790E-11  0.7400E-11  0.7880E-11  0.8070E-11  0.7750E-11  0.7380E-11
  0.1000E+12  0.1600E-25  0.1900E-20  0.2000E-16  0.1810E-13  0.4640E-12  0.2660E-11  0.4370E-11  0.5150E-11  0.5580E-11  0.6060E-11  0.6490E-11  0.6730E-11  0.6590E-11  0.6350E-11
  0.1000E+13  0.1560E-25  0.1770E-20  0.1780E-16  0.1530E-13  0.3170E-12  0.1010E-11  0.1320E-11  0.1470E-11  0.1570E-11  0.1700E-11  0.1850E-11  0.2010E-11  0.2120E-11  0.2160E-11
  0.1000E+14  0.8140E-26  0.7700E-21  0.6600E-17  0.4840E-14  0.6820E-13  0.1940E-12  0.2870E-12  0.3360E-12  0.3670E-12  0.4060E-12  0.4460E-12  0.4800E-12  0.4900E-12  0.4860E-12
  0.1000E+15  0.3860E-26  0.3330E-21  0.2630E-17  0.1810E-14  0.2860E-13  0.1200E-12  0.2000E-12  0.2400E-12  0.2650E-12  0.2940E-12  0.3230E-12  0.3420E-12  0.3390E-12  0.3280E-12
  0.1000E+16  0.3680E-26  0.3080E-21  0.2380E-17  0.1590E-14  0.2660E-13  0.1200E-12  0.2010E-12  0.2410E-12  0.2650E-12  0.2930E-12  0.3190E-12  0.3350E-12  0.3290E-12  0.3160E-12
  0.1000E+17  0.5980E-26  0.4720E-21  0.3300E-17  0.1990E-14  0.3390E-13  0.1550E-12  0.2500E-12  0.2930E-12  0.3160E-12  0.3420E-12  0.3630E-12  0.3690E-12  0.3540E-12  0.3360E-12
WAVELENGTH(A)= 
    32.348
 7 14 t 
excit   
    10.800     16.200     26.900     53.900    108.000    269.000    539.000    808.000   1080.000   1620.000   2690.000   5390.000  10800.000  16200.000 
  0.1000E+11  0.5340E-25  0.6310E-20  0.6510E-16  0.5710E-13  0.1430E-11  0.7430E-11  0.1160E-10  0.1320E-10  0.1390E-10  0.1460E-10  0.1490E-10  0.1450E-10  0.1350E-10  0.1270E-10
  0.1000E+12  0.4050E-25  0.4680E-20  0.4730E-16  0.4080E-13  0.9500E-12  0.4080E-11  0.5770E-11  0.6380E-11  0.6700E-11  0.7000E-11  0.7190E-11  0.7190E-11  0.6910E-11  0.6650E-11
  0.1000E+13  0.2130E-25  0.2330E-20  0.2230E-16  0.1840E-13  0.3460E-12  0.1020E-11  0.1350E-11  0.1500E-11  0.1590E-11  0.1680E-11  0.1760E-11  0.1810E-11  0.1790E-11  0.1750E-11
  0.1000E+14  0.7260E-26  0.7030E-21  0.6130E-17  0.4610E-14  0.7780E-13  0.2940E-12  0.4660E-12  0.5490E-12  0.6000E-12  0.6590E-12  0.7110E-12  0.7410E-12  0.7270E-12  0.7030E-12
  0.1000E+15  0.4040E-26  0.3750E-21  0.3150E-17  0.2290E-14  0.4350E-13  0.2130E-12  0.3650E-12  0.4390E-12  0.4850E-12  0.5360E-12  0.5810E-12  0.6060E-12  0.5880E-12  0.5630E-12
  0.1000E+16  0.3910E-26  0.3580E-21  0.2960E-17  0.2120E-14  0.4130E-13  0.2090E-12  0.3580E-12  0.4310E-12  0.4760E-12  0.5250E-12  0.5690E-12  0.5910E-12  0.5730E-12  0.5470E-12
  0.1000E+17  0.5590E-26  0.4870E-21  0.3750E-17  0.2500E-14  0.4770E-13  0.2340E-12  0.3880E-12  0.4580E-12  0.5000E-12  0.5440E-12  0.5800E-12  0.5940E-12  0.5700E-12  0.5430E-12
WAVELENGTH(A)= 
    32.363
 7 14 t 
excit   
    10.800     16.200     26.900     53.900    108.000    269.000    539.000    808.000   1080.000   1620.000   2690.000   5390.000  10800.000  16200.000 
  0.1000E+11  0.3000E-25  0.3340E-20  0.3360E-16  0.2920E-13  0.7420E-12  0.4400E-11  0.7530E-11  0.8930E-11  0.9770E-11  0.1060E-10  0.1130E-10  0.1160E-10  0.1110E-10  0.1060E-10
  0.1000E+12  0.2860E-25  0.3170E-20  0.3160E-16  0.2720E-13  0.6630E-12  0.3360E-11  0.5200E-11  0.5970E-11  0.6450E-11  0.6990E-11  0.7480E-11  0.7820E-11  0.7810E-11  0.7640E-11
  0.1000E+13  0.2350E-25  0.2430E-20  0.2260E-16  0.1820E-13  0.3230E-12  0.8050E-12  0.9870E-12  0.1080E-11  0.1150E-11  0.1240E-11  0.1340E-11  0.1460E-11  0.1560E-11  0.1610E-11
  0.1000E+14  0.7450E-26  0.6440E-21  0.5120E-17  0.3550E-14  0.4710E-13  0.1320E-12  0.1960E-12  0.2300E-12  0.2520E-12  0.2780E-12  0.3050E-12  0.3270E-12  0.3330E-12  0.3300E-12
  0.1000E+15  0.3120E-26  0.2510E-21  0.1880E-17  0.1240E-14  0.1940E-13  0.8210E-13  0.1370E-12  0.1650E-12  0.1830E-12  0.2040E-12  0.2240E-12  0.2370E-12  0.2350E-12  0.2270E-12
  0.1000E+16  0.2900E-26  0.2290E-21  0.1680E-17  0.1080E-14  0.1790E-13  0.8090E-13  0.1360E-12  0.1640E-12  0.1810E-12  0.2010E-12  0.2200E-12  0.2310E-12  0.2270E-12  0.2190E-12
  0.1000E+17  0.4660E-26  0.3450E-21  0.2310E-17  0.1350E-14  0.2260E-13  0.1020E-12  0.1660E-12  0.1940E-12  0.2110E-12  0.2290E-12  0.2440E-12  0.2490E-12  0.2400E-12  0.2290E-12
WAVELENGTH(A)= 
    32.440
 7 14 t 
excit   
    10.800     16.200     26.900     53.900    108.000    269.000    539.000    808.000   1080.000   1620.000   2690.000   5390.000  10800.000  16200.000 
  0.1000E+11  0.2370E-25  0.2710E-20  0.2780E-16  0.2450E-13  0.6270E-12  0.3760E-11  0.6410E-11  0.7620E-11  0.8310E-11  0.9050E-11  0.9650E-11  0.9880E-11  0.9500E-11  0.9070E-11
  0.1000E+12  0.2250E-25  0.2560E-20  0.2600E-16  0.2280E-13  0.5590E-12  0.2890E-11  0.4480E-11  0.5170E-11  0.5570E-11  0.6040E-11  0.6480E-11  0.6790E-11  0.6770E-11  0.6610E-11
  0.1000E+13  0.1850E-25  0.1970E-20  0.1880E-16  0.1540E-13  0.2780E-12  0.7090E-12  0.8660E-12  0.9480E-12  0.1010E-11  0.1090E-11  0.1190E-11  0.1310E-11  0.1400E-11  0.1440E-11
  0.1000E+14  0.5990E-26  0.5340E-21  0.4360E-17  0.3070E-14  0.3990E-13  0.1050E-12  0.1520E-12  0.1780E-12  0.1950E-12  0.2160E-12  0.2390E-12  0.2600E-12  0.2670E-12  0.2670E-12
  0.1000E+15  0.2390E-26  0.1970E-21  0.1500E-17  0.9990E-15  0.1510E-13  0.6080E-13  0.1010E-12  0.1220E-12  0.1350E-12  0.1510E-12  0.1670E-12  0.1790E-12  0.1790E-12  0.1740E-12
  0.1000E+16  0.2180E-26  0.1760E-21  0.1320E-17  0.8590E-15  0.1370E-13  0.6000E-13  0.1010E-12  0.1210E-12  0.1340E-12  0.1500E-12  0.1640E-12  0.1740E-12  0.1720E-12  0.1670E-12
  0.1000E+17  0.3230E-26  0.2470E-21  0.1700E-17  0.1020E-14  0.1690E-13  0.7580E-13  0.1230E-12  0.1450E-12  0.1580E-12  0.1720E-12  0.1850E-12  0.1900E-12  0.1840E-12  0.1760E-12
WAVELENGTH(A)= 
    32.481
 7 14 t 
excit   
    10.800     16.200     26.900     53.900    108.000    269.000    539.000    808.000   1080.000   1620.000   2690.000   5390.000  10800.000  16200.000 
  0.1000E+11  0.1160E-24  0.1250E-19  0.1210E-15  0.1020E-12  0.2560E-11  0.1520E-10  0.2580E-10  0.3050E-10  0.3330E-10  0.3620E-10  0.3860E-10  0.3950E-10  0.3800E-10  0.3610E-10
  0.1000E+12  0.1110E-24  0.1180E-19  0.1130E-15  0.9480E-13  0.2270E-11  0.1140E-10  0.1740E-10  0.1990E-10  0.2150E-10  0.2320E-10  0.2490E-10  0.2610E-10  0.2610E-10  0.2550E-10
  0.1000E+13  0.8870E-25  0.8780E-20  0.7880E-16  0.6170E-13  0.1060E-11  0.2550E-11  0.3080E-11  0.3360E-11  0.3560E-11  0.3840E-11  0.4170E-11  0.4570E-11  0.4890E-11  0.5020E-11
  0.1000E+14  0.2610E-25  0.2160E-20  0.1650E-16  0.1110E-13  0.1440E-12  0.3980E-12  0.5900E-12  0.6890E-12  0.7550E-12  0.8360E-12  0.9190E-12  0.9880E-12  0.1010E-11  0.9950E-12
  0.1000E+15  0.1070E-25  0.8230E-21  0.5940E-17  0.3810E-14  0.5890E-13  0.2460E-12  0.4110E-12  0.4940E-12  0.5470E-12  0.6110E-12  0.6720E-12  0.7130E-12  0.7060E-12  0.6830E-12
  0.1000E+16  0.9590E-26  0.7290E-21  0.5190E-17  0.3290E-14  0.5350E-13  0.2390E-12  0.4030E-12  0.4860E-12  0.5370E-12  0.5980E-12  0.6560E-12  0.6920E-12  0.6820E-12  0.6560E-12
  0.1000E+17  0.1250E-25  0.9120E-21  0.6130E-17  0.3680E-14  0.6180E-13  0.2810E-12  0.4610E-12  0.5460E-12  0.5960E-12  0.6530E-12  0.7030E-12  0.7270E-12  0.7050E-12  0.6740E-12
WAVELENGTH(A)= 
    32.606
 7 14 t 
excit   
    10.800     16.200     26.900     53.900    108.000    269.000    539.000    808.000   1080.000   1620.000   2690.000   5390.000  10800.000  16200.000 
  0.1000E+11  0.8140E-25  0.8290E-20  0.7760E-16  0.6400E-13  0.1580E-11  0.9260E-11  0.1580E-10  0.1870E-10  0.2030E-10  0.2210E-10  0.2350E-10  0.2410E-10  0.2310E-10  0.2210E-10
  0.1000E+12  0.7730E-25  0.7810E-20  0.7250E-16  0.5920E-13  0.1400E-11  0.6960E-11  0.1070E-10  0.1220E-10  0.1310E-10  0.1420E-10  0.1530E-10  0.1600E-10  0.1600E-10  0.1570E-10
  0.1000E+13  0.6160E-25  0.5810E-20  0.5060E-16  0.3850E-13  0.6560E-12  0.1530E-11  0.1830E-11  0.1980E-11  0.2100E-11  0.2270E-11  0.2470E-11  0.2730E-11  0.2940E-11  0.3040E-11
  0.1000E+14  0.1750E-25  0.1380E-20  0.1030E-16  0.6710E-14  0.8170E-13  0.2030E-12  0.2930E-12  0.3420E-12  0.3740E-12  0.4170E-12  0.4620E-12  0.5030E-12  0.5200E-12  0.5190E-12
  0.1000E+15  0.6470E-26  0.4750E-21  0.3310E-17  0.2050E-14  0.2940E-13  0.1150E-12  0.1910E-12  0.2300E-12  0.2550E-12  0.2870E-12  0.3180E-12  0.3420E-12  0.3420E-12  0.3330E-12
  0.1000E+16  0.5780E-26  0.4160E-21  0.2850E-17  0.1740E-14  0.2650E-13  0.1120E-12  0.1890E-12  0.2280E-12  0.2530E-12  0.2830E-12  0.3120E-12  0.3320E-12  0.3290E-12  0.3190E-12
  0.1000E+17  0.8880E-26  0.6050E-21  0.3800E-17  0.2130E-14  0.3350E-13  0.1450E-12  0.2360E-12  0.2780E-12  0.3020E-12  0.3300E-12  0.3540E-12  0.3650E-12  0.3540E-12  0.3380E-12
WAVELENGTH(A)= 
    32.660
 7 14 t 
excit   
    10.800     16.200     26.900     53.900    108.000    269.000    539.000    808.000   1080.000   1620.000   2690.000   5390.000  10800.000  16200.000 
  0.1000E+11  0.8400E-25  0.8440E-20  0.7730E-16  0.6300E-13  0.1550E-11  0.9070E-11  0.1540E-10  0.1820E-10  0.1990E-10  0.2160E-10  0.2300E-10  0.2350E-10  0.2250E-10  0.2150E-10
  0.1000E+12  0.8180E-25  0.8140E-20  0.7390E-16  0.5960E-13  0.1400E-11  0.6900E-11  0.1050E-10  0.1200E-10  0.1300E-10  0.1390E-10  0.1490E-10  0.1560E-10  0.1560E-10  0.1530E-10
  0.1000E+13  0.6660E-25  0.6170E-20  0.5220E-16  0.3910E-13  0.6560E-12  0.1510E-11  0.1800E-11  0.1950E-11  0.2060E-11  0.2210E-11  0.2410E-11  0.2640E-11  0.2830E-11  0.2920E-11
  0.1000E+14  0.1850E-25  0.1430E-20  0.1030E-16  0.6660E-14  0.8220E-13  0.2130E-12  0.3130E-12  0.3650E-12  0.4010E-12  0.4430E-12  0.4890E-12  0.5290E-12  0.5400E-12  0.5370E-12
  0.1000E+15  0.6970E-26  0.5040E-21  0.3440E-17  0.2110E-14  0.3120E-13  0.1260E-12  0.2100E-12  0.2540E-12  0.2820E-12  0.3150E-12  0.3480E-12  0.3710E-12  0.3690E-12  0.3580E-12
  0.1000E+16  0.6220E-26  0.4430E-21  0.2980E-17  0.1810E-14  0.2810E-13  0.1230E-12  0.2070E-12  0.2500E-12  0.2770E-12  0.3090E-12  0.3400E-12  0.3600E-12  0.3560E-12  0.3430E-12
  0.1000E+17  0.8770E-26  0.5930E-21  0.3720E-17  0.2110E-14  0.3370E-13  0.1490E-12  0.2450E-12  0.2890E-12  0.3160E-12  0.3450E-12  0.3720E-12  0.3850E-12  0.3730E-12  0.3570E-12
WAVELENGTH(A)= 
    32.959
 7 14 t 
excit   
    10.800     16.200     26.900     53.900    108.000    269.000    539.000    808.000   1080.000   1620.000   2690.000   5390.000  10800.000  16200.000 
  0.1000E+11  0.2240E-25  0.2390E-20  0.2320E-16  0.1970E-13  0.4930E-12  0.2910E-11  0.4950E-11  0.5870E-11  0.6400E-11  0.6970E-11  0.7420E-11  0.7590E-11  0.7300E-11  0.6950E-11
  0.1000E+12  0.2130E-25  0.2260E-20  0.2170E-16  0.1820E-13  0.4370E-12  0.2180E-11  0.3340E-11  0.3830E-11  0.4120E-11  0.4460E-11  0.4780E-11  0.5020E-11  0.5010E-11  0.4900E-11
  0.1000E+13  0.1710E-25  0.1690E-20  0.1520E-16  0.1190E-13  0.2050E-12  0.4910E-12  0.5920E-12  0.6450E-12  0.6840E-12  0.7380E-12  0.8020E-12  0.8780E-12  0.9400E-12  0.9650E-12
  0.1000E+14  0.5030E-26  0.4150E-21  0.3180E-17  0.2140E-14  0.2770E-13  0.7640E-13  0.1130E-12  0.1320E-12  0.1450E-12  0.1610E-12  0.1770E-12  0.1900E-12  0.1940E-12  0.1910E-12
  0.1000E+15  0.2050E-26  0.1580E-21  0.1140E-17  0.7330E-15  0.1130E-13  0.4730E-13  0.7890E-13  0.9500E-13  0.1050E-12  0.1170E-12  0.1290E-12  0.1370E-12  0.1360E-12  0.1310E-12
  0.1000E+16  0.1840E-26  0.1400E-21  0.9980E-18  0.6330E-15  0.1030E-13  0.4600E-13  0.7760E-13  0.9330E-13  0.1030E-12  0.1150E-12  0.1260E-12  0.1330E-12  0.1310E-12  0.1260E-12
  0.1000E+17  0.2410E-26  0.1750E-21  0.1180E-17  0.7080E-15  0.1190E-13  0.5390E-13  0.8870E-13  0.1050E-12  0.1150E-12  0.1260E-12  0.1350E-12  0.1400E-12  0.1360E-12  0.1300E-12
WAVELENGTH(A)= 
  1587.170
 7 14 t 
excit   
    10.800     16.200     26.900     53.900    108.000    269.000    539.000    808.000   1080.000   1620.000   2690.000   5390.000  10800.000  16200.000 
  0.1000E+11  0.9600E-12  0.1180E-11  0.1390E-11  0.1610E-11  0.2940E-11  0.8280E-11  0.1180E-10  0.1290E-10  0.1340E-10  0.1360E-10  0.1340E-10  0.1250E-10  0.1110E-10  0.1030E-10
  0.1000E+12  0.9620E-12  0.1180E-11  0.1390E-11  0.1620E-11  0.2900E-11  0.7390E-11  0.9730E-11  0.1040E-10  0.1060E-10  0.1060E-10  0.1040E-10  0.9840E-11  0.8970E-11  0.8390E-11
  0.1000E+13  0.8920E-12  0.1050E-11  0.1200E-11  0.1330E-11  0.1810E-11  0.2130E-11  0.2040E-11  0.2000E-11  0.1990E-11  0.1980E-11  0.1980E-11  0.1990E-11  0.2000E-11  0.2000E-11
  0.1000E+14  0.2170E-12  0.2150E-12  0.2080E-12  0.1980E-12  0.1580E-12  0.1100E-12  0.1020E-12  0.1020E-12  0.1030E-12  0.1050E-12  0.1090E-12  0.1140E-12  0.1190E-12  0.1220E-12
  0.1000E+15  0.1730E-13  0.1550E-13  0.1380E-13  0.1220E-13  0.9450E-14  0.7850E-14  0.7900E-14  0.8070E-14  0.8230E-14  0.8480E-14  0.8800E-14  0.9210E-14  0.9550E-14  0.9720E-14
  0.1000E+16  0.1610E-14  0.1420E-14  0.1250E-14  0.1100E-14  0.8640E-15  0.7480E-15  0.7610E-15  0.7800E-15  0.7960E-15  0.8210E-15  0.8530E-15  0.8910E-15  0.9240E-15  0.9400E-15
  0.1000E+17  0.1600E-15  0.1410E-15  0.1240E-15  0.1090E-15  0.8800E-16  0.7660E-16  0.7680E-16  0.7810E-16  0.7940E-16  0.8140E-16  0.8400E-16  0.8740E-16  0.9040E-16  0.9190E-16
WAVELENGTH(A)= 
  1661.670
 7 14 t 
excit   
    10.800     16.200     26.900     53.900    108.000    269.000    539.000    808.000   1080.000   1620.000   2690.000   5390.000  10800.000  16200.000 
  0.1000E+11  0.1550E-11  0.1840E-11  0.2120E-11  0.2390E-11  0.3620E-11  0.8210E-11  0.1100E-10  0.1180E-10  0.1200E-10  0.1190E-10  0.1150E-10  0.1040E-10  0.9100E-11  0.8290E-11
  0.1000E+12  0.1390E-11  0.1650E-11  0.1910E-11  0.2180E-11  0.3420E-11  0.7880E-11  0.1030E-10  0.1080E-10  0.1100E-10  0.1090E-10  0.1040E-10  0.9530E-11  0.8410E-11  0.7710E-11
  0.1000E+13  0.1230E-11  0.1480E-11  0.1720E-11  0.1940E-11  0.2630E-11  0.3230E-11  0.3170E-11  0.3120E-11  0.3090E-11  0.3050E-11  0.3000E-11  0.2930E-11  0.2840E-11  0.2780E-11
  0.1000E+14  0.3460E-12  0.3560E-12  0.3550E-12  0.3450E-12  0.2720E-12  0.1950E-12  0.1840E-12  0.1840E-12  0.1850E-12  0.1880E-12  0.1930E-12  0.2000E-12  0.2070E-12  0.2110E-12
  0.1000E+15  0.2630E-13  0.2450E-13  0.2250E-13  0.2040E-13  0.1590E-13  0.1380E-13  0.1410E-13  0.1450E-13  0.1480E-13  0.1520E-13  0.1570E-13  0.1630E-13  0.1680E-13  0.1710E-13
  0.1000E+16  0.2400E-14  0.2210E-14  0.2010E-14  0.1800E-14  0.1440E-14  0.1310E-14  0.1350E-14  0.1390E-14  0.1420E-14  0.1460E-14  0.1510E-14  0.1570E-14  0.1620E-14  0.1650E-14
  0.1000E+17  0.2380E-15  0.2190E-15  0.1990E-15  0.1780E-15  0.1470E-15  0.1320E-15  0.1340E-15  0.1360E-15  0.1390E-15  0.1420E-15  0.1460E-15  0.1520E-15  0.1570E-15  0.1590E-15
WAVELENGTH(A)= 
  1789.660
 7 14 t 
excit   
    10.800     16.200     26.900     53.900    108.000    269.000    539.000    808.000   1080.000   1620.000   2690.000   5390.000  10800.000  16200.000 
  0.1000E+11  0.3240E-11  0.3830E-11  0.4420E-11  0.4960E-11  0.7160E-11  0.1510E-10  0.1970E-10  0.2080E-10  0.2110E-10  0.2090E-10  0.2010E-10  0.1830E-10  0.1600E-10  0.1460E-10
  0.1000E+12  0.3300E-11  0.3860E-11  0.4390E-11  0.4870E-11  0.6390E-11  0.1000E-10  0.1110E-10  0.1120E-10  0.1110E-10  0.1090E-10  0.1060E-10  0.9940E-11  0.9190E-11  0.8700E-11
  0.1000E+13  0.1500E-11  0.1660E-11  0.1780E-11  0.1850E-11  0.1750E-11  0.1170E-11  0.9580E-12  0.9070E-12  0.8870E-12  0.8750E-12  0.8730E-12  0.8860E-12  0.9120E-12  0.9310E-12
  0.1000E+14  0.1240E-12  0.1150E-12  0.1060E-12  0.9560E-13  0.6000E-13  0.3470E-13  0.3200E-13  0.3210E-13  0.3250E-13  0.3340E-13  0.3460E-13  0.3650E-13  0.3850E-13  0.3970E-13
  0.1000E+15  0.6190E-14  0.5360E-14  0.4650E-14  0.3970E-14  0.2790E-14  0.2290E-14  0.2350E-14  0.2430E-14  0.2490E-14  0.2580E-14  0.2700E-14  0.2850E-14  0.2970E-14  0.3030E-14
  0.1000E+16  0.5390E-15  0.4630E-15  0.3980E-15  0.3390E-15  0.2500E-15  0.2180E-15  0.2270E-15  0.2340E-15  0.2410E-15  0.2500E-15  0.2610E-15  0.2750E-15  0.2870E-15  0.2920E-15
  0.1000E+17  0.5310E-16  0.4550E-16  0.3920E-16  0.3350E-16  0.2590E-16  0.2270E-16  0.2310E-16  0.2370E-16  0.2420E-16  0.2490E-16  0.2580E-16  0.2700E-16  0.2810E-16  0.2860E-16
WAVELENGTH(A)= 
  2003.340
 7 14 t 
excit   
    10.800     16.200     26.900     53.900    108.000    269.000    539.000    808.000   1080.000   1620.000   2690.000   5390.000  10800.000  16200.000 
  0.1000E+11  0.2180E-12  0.2890E-12  0.3520E-12  0.4370E-12  0.1190E-11  0.4170E-11  0.6180E-11  0.6840E-11  0.7120E-11  0.7270E-11  0.7200E-11  0.6760E-11  0.6060E-11  0.5600E-11
  0.1000E+12  0.2560E-12  0.3370E-12  0.4150E-12  0.5150E-12  0.1310E-11  0.4360E-11  0.6200E-11  0.6750E-11  0.6960E-11  0.7060E-11  0.6960E-11  0.6540E-11  0.5900E-11  0.5470E-11
  0.1000E+13  0.4410E-12  0.5530E-12  0.6590E-12  0.7730E-12  0.1310E-11  0.1970E-11  0.2020E-11  0.2020E-11  0.2020E-11  0.2030E-11  0.2040E-11  0.2040E-11  0.2030E-11  0.2010E-11
  0.1000E+14  0.1910E-12  0.1980E-12  0.1990E-12  0.1960E-12  0.1740E-12  0.1340E-12  0.1260E-12  0.1260E-12  0.1270E-12  0.1300E-12  0.1330E-12  0.1390E-12  0.1450E-12  0.1480E-12
  0.1000E+15  0.1860E-13  0.1740E-13  0.1610E-13  0.1480E-13  0.1210E-13  0.1020E-13  0.1020E-13  0.1030E-13  0.1050E-13  0.1070E-13  0.1100E-13  0.1150E-13  0.1190E-13  0.1210E-13
  0.1000E+16  0.1790E-14  0.1660E-14  0.1520E-14  0.1380E-14  0.1140E-14  0.9850E-15  0.9870E-15  0.1000E-14  0.1020E-14  0.1040E-14  0.1080E-14  0.1120E-14  0.1150E-14  0.1170E-14
  0.1000E+17  0.1780E-15  0.1650E-15  0.1510E-15  0.1370E-15  0.1160E-15  0.1010E-15  0.1000E-15  0.1010E-15  0.1020E-15  0.1040E-15  0.1070E-15  0.1100E-15  0.1140E-15  0.1150E-15
WAVELENGTH(A)= 
  2005.240
 7 14 t 
excit   
    10.800     16.200     26.900     53.900    108.000    269.000    539.000    808.000   1080.000   1620.000   2690.000   5390.000  10800.000  16200.000 
  0.1000E+11  0.9930E-12  0.1300E-11  0.1610E-11  0.1900E-11  0.2780E-11  0.5740E-11  0.7190E-11  0.7370E-11  0.7280E-11  0.6930E-11  0.6290E-11  0.5300E-11  0.4310E-11  0.3780E-11
  0.1000E+12  0.1430E-11  0.1820E-11  0.2200E-11  0.2530E-11  0.3250E-11  0.4850E-11  0.5210E-11  0.5120E-11  0.4970E-11  0.4700E-11  0.4310E-11  0.3750E-11  0.3220E-11  0.2920E-11
  0.1000E+13  0.6010E-12  0.7270E-12  0.8360E-12  0.9150E-12  0.9240E-12  0.7850E-12  0.7050E-12  0.6750E-12  0.6560E-12  0.6340E-12  0.6090E-12  0.5770E-12  0.5470E-12  0.5310E-12
  0.1000E+14  0.5060E-13  0.5550E-13  0.5840E-13  0.5910E-13  0.4850E-13  0.3810E-13  0.3700E-13  0.3720E-13  0.3740E-13  0.3780E-13  0.3840E-13  0.3900E-13  0.3960E-13  0.3990E-13
  0.1000E+15  0.3250E-14  0.3370E-14  0.3380E-14  0.3280E-14  0.2840E-14  0.2750E-14  0.2880E-14  0.2960E-14  0.3010E-14  0.3090E-14  0.3170E-14  0.3250E-14  0.3300E-14  0.3330E-14
  0.1000E+16  0.2990E-15  0.3070E-15  0.3060E-15  0.2950E-15  0.2610E-15  0.2610E-15  0.2750E-15  0.2840E-15  0.2900E-15  0.2970E-15  0.3050E-15  0.3140E-15  0.3200E-15  0.3220E-15
  0.1000E+17  0.2960E-16  0.3040E-16  0.3020E-16  0.2920E-16  0.2600E-16  0.2530E-16  0.2620E-16  0.2690E-16  0.2730E-16  0.2800E-16  0.2870E-16  0.2960E-16  0.3030E-16  0.3070E-16
WAVELENGTH(A)= 
  2028.360
 7 14 t 
excit   
    10.800     16.200     26.900     53.900    108.000    269.000    539.000    808.000   1080.000   1620.000   2690.000   5390.000  10800.000  16200.000 
  0.1000E+11  0.6890E-12  0.8470E-12  0.9990E-12  0.1160E-11  0.2110E-11  0.5940E-11  0.8470E-11  0.9280E-11  0.9600E-11  0.9750E-11  0.9590E-11  0.8960E-11  0.8000E-11  0.7370E-11
  0.1000E+12  0.6900E-12  0.8480E-12  0.1000E-11  0.1160E-11  0.2080E-11  0.5300E-11  0.6980E-11  0.7440E-11  0.7590E-11  0.7630E-11  0.7490E-11  0.7060E-11  0.6440E-11  0.6020E-11
  0.1000E+13  0.6400E-12  0.7560E-12  0.8580E-12  0.9540E-12  0.1300E-11  0.1530E-11  0.1460E-11  0.1440E-11  0.1430E-11  0.1420E-11  0.1420E-11  0.1430E-11  0.1430E-11  0.1430E-11
  0.1000E+14  0.1560E-12  0.1540E-12  0.1490E-12  0.1420E-12  0.1140E-12  0.7880E-13  0.7350E-13  0.7350E-13  0.7420E-13  0.7570E-13  0.7810E-13  0.8160E-13  0.8540E-13  0.8770E-13
  0.1000E+15  0.1240E-13  0.1110E-13  0.9900E-14  0.8750E-14  0.6780E-14  0.5630E-14  0.5670E-14  0.5790E-14  0.5910E-14  0.6090E-14  0.6320E-14  0.6610E-14  0.6850E-14  0.6980E-14
  0.1000E+16  0.1160E-14  0.1020E-14  0.9000E-15  0.7870E-15  0.6200E-15  0.5370E-15  0.5460E-15  0.5600E-15  0.5710E-15  0.5890E-15  0.6120E-15  0.6400E-15  0.6630E-15  0.6740E-15
  0.1000E+17  0.1150E-15  0.1010E-15  0.8900E-16  0.7800E-16  0.6320E-16  0.5490E-16  0.5510E-16  0.5610E-16  0.5700E-16  0.5840E-16  0.6030E-16  0.6270E-16  0.6490E-16  0.6590E-16
WAVELENGTH(A)= 
  2051.980
 7 14 t 
excit   
    10.800     16.200     26.900     53.900    108.000    269.000    539.000    808.000   1080.000   1620.000   2690.000   5390.000  10800.000  16200.000 
  0.1000E+11  0.2580E-11  0.3080E-11  0.3560E-11  0.4020E-11  0.5840E-11  0.1240E-10  0.1610E-10  0.1720E-10  0.1750E-10  0.1760E-10  0.1710E-10  0.1590E-10  0.1430E-10  0.1320E-10
  0.1000E+12  0.1990E-11  0.2290E-11  0.2560E-11  0.2790E-11  0.3650E-11  0.5400E-11  0.5810E-11  0.5860E-11  0.5850E-11  0.5820E-11  0.5750E-11  0.5610E-11  0.5420E-11  0.5280E-11
  0.1000E+13  0.5640E-12  0.5930E-12  0.6090E-12  0.6160E-12  0.5830E-12  0.4000E-12  0.3320E-12  0.3170E-12  0.3120E-12  0.3100E-12  0.3140E-12  0.3250E-12  0.3420E-12  0.3540E-12
  0.1000E+14  0.4030E-13  0.3640E-13  0.3270E-13  0.2910E-13  0.1980E-13  0.1220E-13  0.1130E-13  0.1140E-13  0.1150E-13  0.1190E-13  0.1240E-13  0.1310E-13  0.1380E-13  0.1430E-13
  0.1000E+15  0.2390E-14  0.2010E-14  0.1710E-14  0.1450E-14  0.1050E-14  0.8470E-15  0.8590E-15  0.8850E-15  0.9080E-15  0.9420E-15  0.9860E-15  0.1040E-14  0.1090E-14  0.1110E-14
  0.1000E+16  0.2170E-15  0.1810E-15  0.1530E-15  0.1280E-15  0.9630E-16  0.8120E-16  0.8320E-16  0.8590E-16  0.8810E-16  0.9140E-16  0.9570E-16  0.1010E-15  0.1050E-15  0.1080E-15
  0.1000E+17  0.2150E-16  0.1790E-16  0.1510E-16  0.1270E-16  0.9890E-17  0.8390E-17  0.8460E-17  0.8660E-17  0.8830E-17  0.9100E-17  0.9460E-17  0.9930E-17  0.1030E-16  0.1050E-16
WAVELENGTH(A)= 
  2097.010
 7 14 t 
excit   
    10.800     16.200     26.900     53.900    108.000    269.000    539.000    808.000   1080.000   1620.000   2690.000   5390.000  10800.000  16200.000 
  0.1000E+11  0.2680E-12  0.3520E-12  0.4320E-12  0.5610E-12  0.1930E-11  0.7720E-11  0.1180E-10  0.1330E-10  0.1400E-10  0.1460E-10  0.1470E-10  0.1420E-10  0.1300E-10  0.1210E-10
  0.1000E+12  0.4650E-12  0.6030E-12  0.7430E-12  0.9200E-12  0.2260E-11  0.7100E-11  0.9800E-11  0.1060E-10  0.1100E-10  0.1130E-10  0.1130E-10  0.1100E-10  0.1030E-10  0.9750E-11
  0.1000E+13  0.6850E-12  0.8120E-12  0.9230E-12  0.1030E-11  0.1510E-11  0.1820E-11  0.1750E-11  0.1730E-11  0.1740E-11  0.1750E-11  0.1790E-11  0.1860E-11  0.1940E-11  0.1980E-11
  0.1000E+14  0.1740E-12  0.1690E-12  0.1610E-12  0.1510E-12  0.1240E-12  0.8810E-13  0.8220E-13  0.8220E-13  0.8310E-13  0.8510E-13  0.8830E-13  0.9340E-13  0.9880E-13  0.1020E-12
  0.1000E+15  0.1540E-13  0.1360E-13  0.1200E-13  0.1060E-13  0.8340E-14  0.6650E-14  0.6540E-14  0.6640E-14  0.6750E-14  0.6940E-14  0.7200E-14  0.7560E-14  0.7870E-14  0.8040E-14
  0.1000E+16  0.1470E-14  0.1290E-14  0.1130E-14  0.9900E-15  0.7880E-15  0.6470E-15  0.6410E-15  0.6510E-15  0.6620E-15  0.6790E-15  0.7040E-15  0.7370E-15  0.7660E-15  0.7800E-15
  0.1000E+17  0.1470E-15  0.1290E-15  0.1130E-15  0.9860E-16  0.8090E-16  0.6800E-16  0.6680E-16  0.6740E-16  0.6820E-16  0.6950E-16  0.7150E-16  0.7430E-16  0.7670E-16  0.7790E-16
WAVELENGTH(A)= 
  2239.100
 7 14 t 
excit   
    10.800     16.200     26.900     53.900    108.000    269.000    539.000    808.000   1080.000   1620.000   2690.000   5390.000  10800.000  16200.000 
  0.1000E+11  0.1140E-10  0.1340E-10  0.1550E-10  0.1750E-10  0.2490E-10  0.5400E-10  0.7350E-10  0.8000E-10  0.8260E-10  0.8410E-10  0.8330E-10  0.7860E-10  0.7110E-10  0.6590E-10
  0.1000E+12  0.9790E-11  0.1140E-10  0.1310E-10  0.1460E-10  0.2070E-10  0.4110E-10  0.5140E-10  0.5440E-10  0.5560E-10  0.5620E-10  0.5600E-10  0.5400E-10  0.5060E-10  0.4800E-10
  0.1000E+13  0.5810E-11  0.6430E-11  0.6940E-11  0.7370E-11  0.8320E-11  0.7630E-11  0.6860E-11  0.6700E-11  0.6660E-11  0.6700E-11  0.6840E-11  0.7110E-11  0.7440E-11  0.7650E-11
  0.1000E+14  0.8800E-12  0.7970E-12  0.7200E-12  0.6450E-12  0.4620E-12  0.2970E-12  0.2770E-12  0.2790E-12  0.2830E-12  0.2910E-12  0.3040E-12  0.3230E-12  0.3430E-12  0.3550E-12
  0.1000E+15  0.6460E-13  0.5370E-13  0.4500E-13  0.3790E-13  0.2760E-13  0.2170E-13  0.2170E-13  0.2230E-13  0.2280E-13  0.2360E-13  0.2470E-13  0.2610E-13  0.2740E-13  0.2800E-13
  0.1000E+16  0.6060E-14  0.4980E-14  0.4150E-14  0.3460E-14  0.2580E-14  0.2110E-14  0.2120E-14  0.2180E-14  0.2230E-14  0.2310E-14  0.2410E-14  0.2550E-14  0.2660E-14  0.2710E-14
  0.1000E+17  0.6020E-15  0.4940E-15  0.4110E-15  0.3450E-15  0.2680E-15  0.2230E-15  0.2220E-15  0.2260E-15  0.2300E-15  0.2360E-15  0.2440E-15  0.2550E-15  0.2650E-15  0.2700E-15
WAVELENGTH(A)= 
  2287.320
 7 14 t 
excit   
    10.800     16.200     26.900     53.900    108.000    269.000    539.000    808.000   1080.000   1620.000   2690.000   5390.000  10800.000  16200.000 
  0.1000E+11  0.2290E-12  0.3100E-12  0.3890E-12  0.4940E-12  0.1350E-11  0.4750E-11  0.6950E-11  0.7630E-11  0.7890E-11  0.7990E-11  0.7820E-11  0.7240E-11  0.6410E-11  0.5880E-11
  0.1000E+12  0.6050E-12  0.7890E-12  0.9790E-12  0.1170E-11  0.2090E-11  0.5210E-11  0.6850E-11  0.7280E-11  0.7400E-11  0.7390E-11  0.7170E-11  0.6630E-11  0.5910E-11  0.5450E-11
  0.1000E+13  0.8710E-12  0.1040E-11  0.1200E-11  0.1330E-11  0.1660E-11  0.2060E-11  0.2090E-11  0.2100E-11  0.2100E-11  0.2090E-11  0.2090E-11  0.2060E-11  0.2020E-11  0.1980E-11
  0.1000E+14  0.2080E-12  0.2170E-12  0.2200E-12  0.2170E-12  0.1920E-12  0.1590E-12  0.1550E-12  0.1560E-12  0.1580E-12  0.1610E-12  0.1660E-12  0.1720E-12  0.1780E-12  0.1810E-12
  0.1000E+15  0.2000E-13  0.1960E-13  0.1880E-13  0.1770E-13  0.1510E-13  0.1330E-13  0.1340E-13  0.1370E-13  0.1390E-13  0.1430E-13  0.1480E-13  0.1530E-13  0.1580E-13  0.1600E-13
  0.1000E+16  0.1960E-14  0.1910E-14  0.1810E-14  0.1700E-14  0.1460E-14  0.1300E-14  0.1320E-14  0.1350E-14  0.1370E-14  0.1400E-14  0.1450E-14  0.1500E-14  0.1550E-14  0.1570E-14
  0.1000E+17  0.1960E-15  0.1900E-15  0.1810E-15  0.1690E-15  0.1480E-15  0.1330E-15  0.1330E-15  0.1350E-15  0.1370E-15  0.1390E-15  0.1430E-15  0.1480E-15  0.1520E-15  0.1540E-15
WAVELENGTH(A)= 
  2343.700
 7 14 t 
excit   
    10.800     16.200     26.900     53.900    108.000    269.000    539.000    808.000   1080.000   1620.000   2690.000   5390.000  10800.000  16200.000 
  0.1000E+11  0.5090E-12  0.5910E-12  0.6710E-12  0.8330E-12  0.2470E-11  0.8830E-11  0.1300E-10  0.1430E-10  0.1470E-10  0.1490E-10  0.1450E-10  0.1320E-10  0.1150E-10  0.1050E-10
  0.1000E+12  0.5260E-12  0.6160E-12  0.7030E-12  0.8630E-12  0.2470E-11  0.9440E-11  0.1450E-10  0.1630E-10  0.1710E-10  0.1760E-10  0.1760E-10  0.1660E-10  0.1480E-10  0.1360E-10
  0.1000E+13  0.7470E-12  0.8830E-12  0.1010E-11  0.1180E-11  0.2590E-11  0.5430E-11  0.6070E-11  0.6280E-11  0.6420E-11  0.6610E-11  0.6850E-11  0.7150E-11  0.7350E-11  0.7410E-11
  0.1000E+14  0.6410E-12  0.6390E-12  0.6180E-12  0.5960E-12  0.5850E-12  0.4600E-12  0.4250E-12  0.4240E-12  0.4270E-12  0.4360E-12  0.4520E-12  0.4790E-12  0.5100E-12  0.5300E-12
  0.1000E+15  0.9210E-13  0.8050E-13  0.7030E-13  0.6170E-13  0.4980E-13  0.3780E-13  0.3570E-13  0.3570E-13  0.3600E-13  0.3670E-13  0.3790E-13  0.3970E-13  0.4140E-13  0.4240E-13
  0.1000E+16  0.9340E-14  0.8040E-14  0.6930E-14  0.6020E-14  0.4870E-14  0.3800E-14  0.3610E-14  0.3610E-14  0.3630E-14  0.3690E-14  0.3790E-14  0.3940E-14  0.4090E-14  0.4170E-14
  0.1000E+17  0.9340E-15  0.8030E-15  0.6920E-15  0.6030E-15  0.5110E-15  0.4270E-15  0.4080E-15  0.4060E-15  0.4070E-15  0.4100E-15  0.4160E-15  0.4250E-15  0.4340E-15  0.4390E-15
WAVELENGTH(A)= 
  2387.580
 7 14 t 
excit   
    10.800     16.200     26.900     53.900    108.000    269.000    539.000    808.000   1080.000   1620.000   2690.000   5390.000  10800.000  16200.000 
  0.1000E+11  0.6390E-12  0.8370E-12  0.1030E-11  0.1230E-11  0.2180E-11  0.5750E-11  0.7850E-11  0.8380E-11  0.8500E-11  0.8400E-11  0.7980E-11  0.7100E-11  0.6070E-11  0.5460E-11
  0.1000E+12  0.7750E-12  0.9860E-12  0.1190E-11  0.1380E-11  0.2250E-11  0.4930E-11  0.6140E-11  0.6400E-11  0.6440E-11  0.6360E-11  0.6120E-11  0.5610E-11  0.4990E-11  0.4610E-11
  0.1000E+13  0.5310E-12  0.6290E-12  0.7120E-12  0.7890E-12  0.1040E-11  0.1270E-11  0.1270E-11  0.1260E-11  0.1260E-11  0.1250E-11  0.1240E-11  0.1230E-11  0.1200E-11  0.1180E-11
  0.1000E+14  0.1110E-12  0.1130E-12  0.1120E-12  0.1100E-12  0.1020E-12  0.8820E-13  0.8670E-13  0.8770E-13  0.8880E-13  0.9060E-13  0.9300E-13  0.9620E-13  0.9880E-13  0.1000E-12
  0.1000E+15  0.1090E-13  0.1050E-13  0.9910E-14  0.9250E-14  0.8170E-14  0.7350E-14  0.7470E-14  0.7640E-14  0.7780E-14  0.7990E-14  0.8250E-14  0.8560E-14  0.8800E-14  0.8920E-14
  0.1000E+16  0.1080E-14  0.1030E-14  0.9660E-15  0.8960E-15  0.7900E-15  0.7160E-15  0.7290E-15  0.7460E-15  0.7600E-15  0.7810E-15  0.8070E-15  0.8380E-15  0.8620E-15  0.8740E-15
  0.1000E+17  0.1080E-15  0.1030E-15  0.9630E-16  0.8940E-16  0.7910E-16  0.7110E-16  0.7160E-16  0.7280E-16  0.7400E-16  0.7570E-16  0.7790E-16  0.8080E-16  0.8320E-16  0.8450E-16
WAVELENGTH(A)= 
  2547.980
 7 14 t 
excit   
    10.800     16.200     26.900     53.900    108.000    269.000    539.000    808.000   1080.000   1620.000   2690.000   5390.000  10800.000  16200.000 
  0.1000E+11  0.5620E-12  0.7400E-12  0.9060E-12  0.1070E-11  0.2070E-11  0.6090E-11  0.8530E-11  0.9170E-11  0.9340E-11  0.9260E-11  0.8830E-11  0.7890E-11  0.6770E-11  0.6090E-11
  0.1000E+12  0.6390E-12  0.8300E-12  0.1010E-11  0.1190E-11  0.2180E-11  0.5320E-11  0.6770E-11  0.7070E-11  0.7120E-11  0.7010E-11  0.6700E-11  0.6090E-11  0.5390E-11  0.4960E-11
  0.1000E+13  0.6250E-12  0.7780E-12  0.9170E-12  0.1050E-11  0.1470E-11  0.2040E-11  0.2120E-11  0.2110E-11  0.2090E-11  0.2060E-11  0.2000E-11  0.1910E-11  0.1790E-11  0.1720E-11
  0.1000E+14  0.2070E-12  0.2240E-12  0.2340E-12  0.2370E-12  0.2180E-12  0.1940E-12  0.1930E-12  0.1950E-12  0.1960E-12  0.1990E-12  0.2020E-12  0.2060E-12  0.2080E-12  0.2080E-12
  0.1000E+15  0.2070E-13  0.2090E-13  0.2040E-13  0.1960E-13  0.1750E-13  0.1660E-13  0.1720E-13  0.1760E-13  0.1790E-13  0.1830E-13  0.1870E-13  0.1920E-13  0.1960E-13  0.1970E-13
  0.1000E+16  0.2020E-14  0.2020E-14  0.1960E-14  0.1870E-14  0.1680E-14  0.1620E-14  0.1680E-14  0.1720E-14  0.1750E-14  0.1790E-14  0.1840E-14  0.1890E-14  0.1930E-14  0.1940E-14
  0.1000E+17  0.2020E-15  0.2010E-15  0.1950E-15  0.1860E-15  0.1680E-15  0.1610E-15  0.1640E-15  0.1670E-15  0.1690E-15  0.1730E-15  0.1770E-15  0.1820E-15  0.1860E-15  0.1880E-15
WAVELENGTH(A)= 
  2812.410
 7 14 t 
excit   
    10.800     16.200     26.900     53.900    108.000    269.000    539.000    808.000   1080.000   1620.000   2690.000   5390.000  10800.000  16200.000 
  0.1000E+11  0.1920E-12  0.2530E-12  0.3100E-12  0.4030E-12  0.1390E-11  0.5540E-11  0.8480E-11  0.9550E-11  0.1010E-10  0.1040E-10  0.1060E-10  0.1020E-10  0.9330E-11  0.8710E-11
  0.1000E+12  0.3330E-12  0.4330E-12  0.5330E-12  0.6600E-12  0.1620E-11  0.5090E-11  0.7030E-11  0.7640E-11  0.7900E-11  0.8090E-11  0.8130E-11  0.7890E-11  0.7380E-11  0.6990E-11
  0.1000E+13  0.4910E-12  0.5820E-12  0.6620E-12  0.7420E-12  0.1080E-11  0.1310E-11  0.1250E-11  0.1240E-11  0.1250E-11  0.1260E-11  0.1290E-11  0.1340E-11  0.1390E-11  0.1420E-11
  0.1000E+14  0.1250E-12  0.1210E-12  0.1150E-12  0.1090E-12  0.8920E-13  0.6320E-13  0.5890E-13  0.5900E-13  0.5960E-13  0.6100E-13  0.6330E-13  0.6700E-13  0.7090E-13  0.7330E-13
  0.1000E+15  0.1100E-13  0.9770E-14  0.8640E-14  0.7610E-14  0.5980E-14  0.4770E-14  0.4690E-14  0.4760E-14  0.4840E-14  0.4980E-14  0.5170E-14  0.5420E-14  0.5650E-14  0.5770E-14
  0.1000E+16  0.1060E-14  0.9280E-15  0.8130E-15  0.7100E-15  0.5650E-15  0.4640E-15  0.4600E-15  0.4670E-15  0.4750E-15  0.4870E-15  0.5050E-15  0.5290E-15  0.5490E-15  0.5590E-15
  0.1000E+17  0.1050E-15  0.9220E-16  0.8070E-16  0.7070E-16  0.5800E-16  0.4880E-16  0.4790E-16  0.4830E-16  0.4890E-16  0.4990E-16  0.5130E-16  0.5330E-16  0.5500E-16  0.5590E-16
WAVELENGTH(A)= 
  2924.100
 7 14 t 
excit   
    10.800     16.200     26.900     53.900    108.000    269.000    539.000    808.000   1080.000   1620.000   2690.000   5390.000  10800.000  16200.000 
  0.1000E+11  0.6580E-12  0.8260E-12  0.9850E-12  0.1150E-11  0.2030E-11  0.5170E-11  0.6890E-11  0.7270E-11  0.7310E-11  0.7140E-11  0.6680E-11  0.5830E-11  0.4900E-11  0.4370E-11
  0.1000E+12  0.6680E-12  0.8270E-12  0.9770E-12  0.1130E-11  0.1870E-11  0.3940E-11  0.4730E-11  0.4850E-11  0.4840E-11  0.4730E-11  0.4500E-11  0.4080E-11  0.3610E-11  0.3320E-11
  0.1000E+13  0.3630E-12  0.4270E-12  0.4800E-12  0.5340E-12  0.7050E-12  0.7890E-12  0.7560E-12  0.7420E-12  0.7350E-12  0.7270E-12  0.7190E-12  0.7080E-12  0.6950E-12  0.6870E-12
  0.1000E+14  0.6090E-13  0.6320E-13  0.6360E-13  0.6310E-13  0.5720E-13  0.4680E-13  0.4520E-13  0.4550E-13  0.4590E-13  0.4660E-13  0.4770E-13  0.4920E-13  0.5070E-13  0.5150E-13
  0.1000E+15  0.5300E-14  0.5180E-14  0.4950E-14  0.4670E-14  0.4110E-14  0.3700E-14  0.3750E-14  0.3820E-14  0.3890E-14  0.3980E-14  0.4090E-14  0.4230E-14  0.4340E-14  0.4400E-14
  0.1000E+16  0.5110E-15  0.4960E-15  0.4710E-15  0.4410E-15  0.3890E-15  0.3570E-15  0.3640E-15  0.3710E-15  0.3780E-15  0.3870E-15  0.3980E-15  0.4120E-15  0.4230E-15  0.4280E-15
  0.1000E+17  0.5090E-16  0.4930E-16  0.4680E-16  0.4380E-16  0.3880E-16  0.3530E-16  0.3560E-16  0.3610E-16  0.3660E-16  0.3740E-16  0.3840E-16  0.3970E-16  0.4080E-16  0.4140E-16
WAVELENGTH(A)= 
  2983.790
 7 14 t 
excit   
    10.800     16.200     26.900     53.900    108.000    269.000    539.000    808.000   1080.000   1620.000   2690.000   5390.000  10800.000  16200.000 
  0.1000E+11  0.1370E-11  0.1760E-11  0.2130E-11  0.2500E-11  0.4370E-11  0.1100E-10  0.1470E-10  0.1560E-10  0.1570E-10  0.1540E-10  0.1460E-10  0.1290E-10  0.1090E-10  0.9800E-11
  0.1000E+12  0.1500E-11  0.1890E-11  0.2250E-11  0.2590E-11  0.4100E-11  0.8380E-11  0.1010E-10  0.1040E-10  0.1050E-10  0.1030E-10  0.9840E-11  0.9010E-11  0.8040E-11  0.7430E-11
  0.1000E+13  0.9310E-12  0.1100E-11  0.1240E-11  0.1360E-11  0.1710E-11  0.1940E-11  0.1890E-11  0.1860E-11  0.1840E-11  0.1830E-11  0.1810E-11  0.1780E-11  0.1750E-11  0.1720E-11
  0.1000E+14  0.1800E-12  0.1810E-12  0.1780E-12  0.1720E-12  0.1480E-12  0.1170E-12  0.1130E-12  0.1140E-12  0.1150E-12  0.1170E-12  0.1210E-12  0.1250E-12  0.1300E-12  0.1320E-12
  0.1000E+15  0.1580E-13  0.1470E-13  0.1350E-13  0.1230E-13  0.1040E-13  0.9090E-14  0.9250E-14  0.9470E-14  0.9670E-14  0.9950E-14  0.1030E-13  0.1070E-13  0.1110E-13  0.1130E-13
  0.1000E+16  0.1520E-14  0.1400E-14  0.1280E-14  0.1160E-14  0.9810E-15  0.8770E-15  0.8980E-15  0.9210E-15  0.9400E-15  0.9690E-15  0.1000E-14  0.1050E-14  0.1080E-14  0.1100E-14
  0.1000E+17  0.1510E-15  0.1400E-15  0.1270E-15  0.1150E-15  0.9860E-16  0.8760E-16  0.8860E-16  0.9030E-16  0.9190E-16  0.9420E-16  0.9730E-16  0.1010E-15  0.1050E-15  0.1060E-15
WAVELENGTH(A)= 
  3125.650
 7 14 t 
excit   
    10.800     16.200     26.900     53.900    108.000    269.000    539.000    808.000   1080.000   1620.000   2690.000   5390.000  10800.000  16200.000 
  0.1000E+11  0.6800E-12  0.8530E-12  0.1020E-11  0.1190E-11  0.2100E-11  0.5330E-11  0.7110E-11  0.7500E-11  0.7550E-11  0.7370E-11  0.6890E-11  0.6020E-11  0.5060E-11  0.4510E-11
  0.1000E+12  0.6900E-12  0.8540E-12  0.1010E-11  0.1170E-11  0.1940E-11  0.4060E-11  0.4880E-11  0.5010E-11  0.5000E-11  0.4880E-11  0.4640E-11  0.4210E-11  0.3720E-11  0.3430E-11
  0.1000E+13  0.3750E-12  0.4400E-12  0.4960E-12  0.5510E-12  0.7280E-12  0.8140E-12  0.7800E-12  0.7660E-12  0.7590E-12  0.7510E-12  0.7420E-12  0.7310E-12  0.7180E-12  0.7090E-12
  0.1000E+14  0.6290E-13  0.6520E-13  0.6560E-13  0.6510E-13  0.5900E-13  0.4830E-13  0.4670E-13  0.4690E-13  0.4730E-13  0.4810E-13  0.4930E-13  0.5080E-13  0.5230E-13  0.5310E-13
  0.1000E+15  0.5470E-14  0.5350E-14  0.5110E-14  0.4820E-14  0.4240E-14  0.3820E-14  0.3870E-14  0.3950E-14  0.4010E-14  0.4100E-14  0.4220E-14  0.4370E-14  0.4490E-14  0.4540E-14
  0.1000E+16  0.5270E-15  0.5120E-15  0.4860E-15  0.4550E-15  0.4020E-15  0.3690E-15  0.3760E-15  0.3830E-15  0.3900E-15  0.3990E-15  0.4110E-15  0.4250E-15  0.4370E-15  0.4420E-15
  0.1000E+17  0.5250E-16  0.5090E-16  0.4830E-16  0.4520E-16  0.4010E-16  0.3640E-16  0.3670E-16  0.3730E-16  0.3780E-16  0.3860E-16  0.3970E-16  0.4100E-16  0.4220E-16  0.4270E-16
WAVELENGTH(A)= 
  3230.340
 7 14 t 
excit   
    10.800     16.200     26.900     53.900    108.000    269.000    539.000    808.000   1080.000   1620.000   2690.000   5390.000  10800.000  16200.000 
  0.1000E+11  0.2460E-11  0.2900E-11  0.3350E-11  0.3770E-11  0.5370E-11  0.1170E-10  0.1590E-10  0.1730E-10  0.1790E-10  0.1820E-10  0.1800E-10  0.1700E-10  0.1540E-10  0.1420E-10
  0.1000E+12  0.2120E-11  0.2470E-11  0.2820E-11  0.3160E-11  0.4480E-11  0.8870E-11  0.1110E-10  0.1180E-10  0.1200E-10  0.1220E-10  0.1210E-10  0.1170E-10  0.1090E-10  0.1040E-10
  0.1000E+13  0.1260E-11  0.1390E-11  0.1500E-11  0.1590E-11  0.1800E-11  0.1650E-11  0.1480E-11  0.1450E-11  0.1440E-11  0.1450E-11  0.1480E-11  0.1540E-11  0.1610E-11  0.1650E-11
  0.1000E+14  0.1900E-12  0.1720E-12  0.1560E-12  0.1390E-12  0.9980E-13  0.6410E-13  0.5980E-13  0.6020E-13  0.6110E-13  0.6290E-13  0.6570E-13  0.6970E-13  0.7410E-13  0.7660E-13
  0.1000E+15  0.1400E-13  0.1160E-13  0.9730E-14  0.8180E-14  0.5970E-14  0.4690E-14  0.4700E-14  0.4820E-14  0.4930E-14  0.5100E-14  0.5340E-14  0.5640E-14  0.5910E-14  0.6050E-14
  0.1000E+16  0.1310E-14  0.1080E-14  0.8960E-15  0.7490E-15  0.5580E-15  0.4550E-15  0.4590E-15  0.4710E-15  0.4820E-15  0.4990E-15  0.5220E-15  0.5500E-15  0.5750E-15  0.5870E-15
  0.1000E+17  0.1300E-15  0.1070E-15  0.8880E-16  0.7450E-16  0.5780E-16  0.4810E-16  0.4800E-16  0.4880E-16  0.4960E-16  0.5090E-16  0.5280E-16  0.5510E-16  0.5730E-16  0.5830E-16
WAVELENGTH(A)= 
  3363.580
 7 14 t 
excit   
    10.800     16.200     26.900     53.900    108.000    269.000    539.000    808.000   1080.000   1620.000   2690.000   5390.000  10800.000  16200.000 
  0.1000E+11  0.7050E-12  0.9230E-12  0.1140E-11  0.1350E-11  0.2410E-11  0.6340E-11  0.8650E-11  0.9230E-11  0.9370E-11  0.9260E-11  0.8800E-11  0.7830E-11  0.6690E-11  0.6010E-11
  0.1000E+12  0.8540E-12  0.1090E-11  0.1310E-11  0.1520E-11  0.2480E-11  0.5430E-11  0.6770E-11  0.7050E-11  0.7100E-11  0.7020E-11  0.6740E-11  0.6190E-11  0.5500E-11  0.5080E-11
  0.1000E+13  0.5850E-12  0.6930E-12  0.7850E-12  0.8700E-12  0.1150E-11  0.1410E-11  0.1400E-11  0.1390E-11  0.1390E-11  0.1380E-11  0.1370E-11  0.1350E-11  0.1320E-11  0.1300E-11
  0.1000E+14  0.1220E-12  0.1250E-12  0.1240E-12  0.1220E-12  0.1130E-12  0.9730E-13  0.9560E-13  0.9670E-13  0.9790E-13  0.9990E-13  0.1030E-12  0.1060E-12  0.1090E-12  0.1110E-12
  0.1000E+15  0.1210E-13  0.1160E-13  0.1090E-13  0.1020E-13  0.9010E-14  0.8110E-14  0.8240E-14  0.8420E-14  0.8580E-14  0.8800E-14  0.9090E-14  0.9440E-14  0.9710E-14  0.9840E-14
  0.1000E+16  0.1190E-14  0.1140E-14  0.1060E-14  0.9880E-15  0.8710E-15  0.7890E-15  0.8040E-15  0.8220E-15  0.8380E-15  0.8610E-15  0.8890E-15  0.9240E-15  0.9500E-15  0.9630E-15
  0.1000E+17  0.1190E-15  0.1130E-15  0.1060E-15  0.9850E-16  0.8730E-16  0.7840E-16  0.7890E-16  0.8030E-16  0.8160E-16  0.8340E-16  0.8590E-16  0.8910E-16  0.9170E-16  0.9310E-16
WAVELENGTH(A)= 
  3421.830
 7 14 t 
excit   
    10.800     16.200     26.900     53.900    108.000    269.000    539.000    808.000   1080.000   1620.000   2690.000   5390.000  10800.000  16200.000 
  0.1000E+11  0.1290E-11  0.1530E-11  0.1760E-11  0.1980E-11  0.3000E-11  0.6810E-11  0.9140E-11  0.9770E-11  0.9950E-11  0.9900E-11  0.9520E-11  0.8640E-11  0.7550E-11  0.6880E-11
  0.1000E+12  0.1150E-11  0.1370E-11  0.1590E-11  0.1810E-11  0.2840E-11  0.6540E-11  0.8520E-11  0.9000E-11  0.9110E-11  0.9020E-11  0.8670E-11  0.7910E-11  0.6980E-11  0.6400E-11
  0.1000E+13  0.1020E-11  0.1230E-11  0.1430E-11  0.1610E-11  0.2180E-11  0.2680E-11  0.2630E-11  0.2590E-11  0.2560E-11  0.2530E-11  0.2490E-11  0.2430E-11  0.2360E-11  0.2310E-11
  0.1000E+14  0.2870E-12  0.2950E-12  0.2950E-12  0.2860E-12  0.2260E-12  0.1610E-12  0.1520E-12  0.1520E-12  0.1540E-12  0.1560E-12  0.1600E-12  0.1660E-12  0.1720E-12  0.1750E-12
  0.1000E+15  0.2180E-13  0.2030E-13  0.1870E-13  0.1690E-13  0.1320E-13  0.1150E-13  0.1170E-13  0.1200E-13  0.1220E-13  0.1260E-13  0.1300E-13  0.1350E-13  0.1390E-13  0.1420E-13
  0.1000E+16  0.1990E-14  0.1840E-14  0.1670E-14  0.1500E-14  0.1190E-14  0.1090E-14  0.1120E-14  0.1150E-14  0.1180E-14  0.1210E-14  0.1250E-14  0.1310E-14  0.1350E-14  0.1370E-14
  0.1000E+17  0.1970E-15  0.1810E-15  0.1650E-15  0.1480E-15  0.1220E-15  0.1100E-15  0.1110E-15  0.1130E-15  0.1150E-15  0.1180E-15  0.1210E-15  0.1260E-15  0.1300E-15  0.1320E-15
WAVELENGTH(A)= 
  3695.900
 7 14 t 
excit   
    10.800     16.200     26.900     53.900    108.000    269.000    539.000    808.000   1080.000   1620.000   2690.000   5390.000  10800.000  16200.000 
  0.1000E+11  0.8880E-12  0.1100E-11  0.1290E-11  0.1480E-11  0.2510E-11  0.6370E-11  0.8680E-11  0.9310E-11  0.9490E-11  0.9450E-11  0.9080E-11  0.8230E-11  0.7170E-11  0.6520E-11
  0.1000E+12  0.9470E-12  0.1160E-11  0.1360E-11  0.1550E-11  0.2510E-11  0.5590E-11  0.7040E-11  0.7380E-11  0.7450E-11  0.7390E-11  0.7150E-11  0.6610E-11  0.5920E-11  0.5490E-11
  0.1000E+13  0.7800E-12  0.9270E-12  0.1050E-11  0.1170E-11  0.1460E-11  0.1600E-11  0.1530E-11  0.1500E-11  0.1490E-11  0.1480E-11  0.1470E-11  0.1450E-11  0.1440E-11  0.1420E-11
  0.1000E+14  0.1790E-12  0.1790E-12  0.1740E-12  0.1650E-12  0.1270E-12  0.9350E-13  0.9000E-13  0.9070E-13  0.9180E-13  0.9380E-13  0.9650E-13  0.1000E-12  0.1040E-12  0.1060E-12
  0.1000E+15  0.1330E-13  0.1240E-13  0.1140E-13  0.1030E-13  0.8250E-14  0.7220E-14  0.7390E-14  0.7590E-14  0.7750E-14  0.7980E-14  0.8270E-14  0.8620E-14  0.8900E-14  0.9040E-14
  0.1000E+16  0.1230E-14  0.1140E-14  0.1050E-14  0.9430E-15  0.7720E-15  0.6980E-15  0.7190E-15  0.7390E-15  0.7550E-15  0.7780E-15  0.8070E-15  0.8410E-15  0.8680E-15  0.8810E-15
  0.1000E+17  0.1220E-15  0.1130E-15  0.1040E-15  0.9370E-16  0.7870E-16  0.7090E-16  0.7180E-16  0.7330E-16  0.7450E-16  0.7630E-16  0.7870E-16  0.8170E-16  0.8430E-16  0.8560E-16
WAVELENGTH(A)= 
  3802.410
 7 14 t 
excit   
    10.800     16.200     26.900     53.900    108.000    269.000    539.000    808.000   1080.000   1620.000   2690.000   5390.000  10800.000  16200.000 
  0.1000E+11  0.1160E-11  0.1490E-11  0.1810E-11  0.2120E-11  0.3700E-11  0.9370E-11  0.1250E-10  0.1320E-10  0.1330E-10  0.1310E-10  0.1230E-10  0.1090E-10  0.9280E-11  0.8310E-11
  0.1000E+12  0.1270E-11  0.1600E-11  0.1900E-11  0.2190E-11  0.3480E-11  0.7110E-11  0.8590E-11  0.8860E-11  0.8870E-11  0.8720E-11  0.8350E-11  0.7640E-11  0.6820E-11  0.6310E-11
  0.1000E+13  0.7900E-12  0.9330E-12  0.1050E-11  0.1160E-11  0.1450E-11  0.1650E-11  0.1600E-11  0.1580E-11  0.1560E-11  0.1550E-11  0.1540E-11  0.1510E-11  0.1480E-11  0.1460E-11
  0.1000E+14  0.1520E-12  0.1530E-12  0.1510E-12  0.1460E-12  0.1260E-12  0.9920E-13  0.9570E-13  0.9640E-13  0.9750E-13  0.9960E-13  0.1020E-12  0.1060E-12  0.1100E-12  0.1120E-12
  0.1000E+15  0.1340E-13  0.1250E-13  0.1150E-13  0.1050E-13  0.8800E-14  0.7710E-14  0.7850E-14  0.8040E-14  0.8200E-14  0.8440E-14  0.8750E-14  0.9110E-14  0.9410E-14  0.9560E-14
  0.1000E+16  0.1290E-14  0.1190E-14  0.1090E-14  0.9840E-15  0.8320E-15  0.7440E-15  0.7620E-15  0.7820E-15  0.7980E-15  0.8220E-15  0.8520E-15  0.8880E-15  0.9170E-15  0.9310E-15
  0.1000E+17  0.1280E-15  0.1180E-15  0.1080E-15  0.9790E-16  0.8360E-16  0.7440E-16  0.7510E-16  0.7660E-16  0.7790E-16  0.7990E-16  0.8260E-16  0.8590E-16  0.8870E-16  0.9020E-16
WAVELENGTH(A)= 
  3813.980
 7 14 t 
excit   
    10.800     16.200     26.900     53.900    108.000    269.000    539.000    808.000   1080.000   1620.000   2690.000   5390.000  10800.000  16200.000 
  0.1000E+11  0.1760E-13  0.2500E-13  0.3240E-13  0.7050E-13  0.6820E-12  0.3430E-11  0.5510E-11  0.6320E-11  0.6720E-11  0.7070E-11  0.7250E-11  0.7070E-11  0.6550E-11  0.6140E-11
  0.1000E+12  0.5230E-13  0.7440E-13  0.9850E-13  0.1530E-12  0.8290E-12  0.3820E-11  0.5880E-11  0.6580E-11  0.6900E-11  0.7130E-11  0.7170E-11  0.6870E-11  0.6300E-11  0.5890E-11
  0.1000E+13  0.3250E-12  0.4290E-12  0.5320E-12  0.6510E-12  0.1280E-11  0.2240E-11  0.2410E-11  0.2450E-11  0.2470E-11  0.2500E-11  0.2530E-11  0.2560E-11  0.2560E-11  0.2540E-11
  0.1000E+14  0.2200E-12  0.2370E-12  0.2460E-12  0.2480E-12  0.2310E-12  0.1880E-12  0.1790E-12  0.1790E-12  0.1800E-12  0.1830E-12  0.1880E-12  0.1960E-12  0.2040E-12  0.2090E-12
  0.1000E+15  0.2450E-13  0.2410E-13  0.2310E-13  0.2170E-13  0.1840E-13  0.1560E-13  0.1520E-13  0.1530E-13  0.1550E-13  0.1580E-13  0.1620E-13  0.1680E-13  0.1730E-13  0.1760E-13
  0.1000E+16  0.2420E-14  0.2350E-14  0.2230E-14  0.2080E-14  0.1770E-14  0.1520E-14  0.1500E-14  0.1510E-14  0.1520E-14  0.1550E-14  0.1590E-14  0.1640E-14  0.1690E-14  0.1720E-14
  0.1000E+17  0.2420E-15  0.2340E-15  0.2220E-15  0.2070E-15  0.1810E-15  0.1570E-15  0.1530E-15  0.1540E-15  0.1550E-15  0.1570E-15  0.1600E-15  0.1650E-15  0.1690E-15  0.1710E-15
WAVELENGTH(A)= 
  4021.780
 7 14 t 
excit   
    10.800     16.200     26.900     53.900    108.000    269.000    539.000    808.000   1080.000   1620.000   2690.000   5390.000  10800.000  16200.000 
  0.1000E+11  0.6770E-12  0.8500E-12  0.1010E-11  0.1190E-11  0.2090E-11  0.5310E-11  0.7090E-11  0.7480E-11  0.7520E-11  0.7340E-11  0.6870E-11  0.6000E-11  0.5040E-11  0.4490E-11
  0.1000E+12  0.6880E-12  0.8510E-12  0.1000E-11  0.1160E-11  0.1930E-11  0.4050E-11  0.4870E-11  0.4990E-11  0.4980E-11  0.4870E-11  0.4630E-11  0.4200E-11  0.3710E-11  0.3420E-11
  0.1000E+13  0.3740E-12  0.4390E-12  0.4940E-12  0.5490E-12  0.7260E-12  0.8120E-12  0.7780E-12  0.7640E-12  0.7570E-12  0.7480E-12  0.7400E-12  0.7280E-12  0.7150E-12  0.7060E-12
  0.1000E+14  0.6270E-13  0.6500E-13  0.6540E-13  0.6490E-13  0.5880E-13  0.4820E-13  0.4650E-13  0.4680E-13  0.4720E-13  0.4800E-13  0.4910E-13  0.5060E-13  0.5210E-13  0.5300E-13
  0.1000E+15  0.5460E-14  0.5330E-14  0.5100E-14  0.4800E-14  0.4220E-14  0.3810E-14  0.3860E-14  0.3930E-14  0.4000E-14  0.4090E-14  0.4210E-14  0.4350E-14  0.4470E-14  0.4530E-14
  0.1000E+16  0.5260E-15  0.5100E-15  0.4840E-15  0.4540E-15  0.4000E-15  0.3680E-15  0.3740E-15  0.3820E-15  0.3890E-15  0.3980E-15  0.4100E-15  0.4240E-15  0.4350E-15  0.4410E-15
  0.1000E+17  0.5230E-16  0.5070E-16  0.4820E-16  0.4510E-16  0.3990E-16  0.3630E-16  0.3660E-16  0.3720E-16  0.3770E-16  0.3850E-16  0.3950E-16  0.4090E-16  0.4200E-16  0.4260E-16
WAVELENGTH(A)= 
  4432.270
 7 14 t 
excit   
    10.800     16.200     26.900     53.900    108.000    269.000    539.000    808.000   1080.000   1620.000   2690.000   5390.000  10800.000  16200.000 
  0.1000E+11  0.1470E-11  0.1820E-11  0.2140E-11  0.2460E-11  0.4160E-11  0.1060E-10  0.1440E-10  0.1540E-10  0.1570E-10  0.1570E-10  0.1510E-10  0.1370E-10  0.1190E-10  0.1080E-10
  0.1000E+12  0.1570E-11  0.1920E-11  0.2250E-11  0.2580E-11  0.4170E-11  0.9270E-11  0.1170E-10  0.1220E-10  0.1240E-10  0.1230E-10  0.1190E-10  0.1100E-10  0.9830E-11  0.9100E-11
  0.1000E+13  0.1290E-11  0.1540E-11  0.1750E-11  0.1930E-11  0.2430E-11  0.2650E-11  0.2530E-11  0.2490E-11  0.2470E-11  0.2450E-11  0.2440E-11  0.2410E-11  0.2380E-11  0.2360E-11
  0.1000E+14  0.2970E-12  0.2960E-12  0.2880E-12  0.2730E-12  0.2110E-12  0.1550E-12  0.1490E-12  0.1500E-12  0.1520E-12  0.1550E-12  0.1600E-12  0.1660E-12  0.1720E-12  0.1750E-12
  0.1000E+15  0.2210E-13  0.2060E-13  0.1890E-13  0.1710E-13  0.1370E-13  0.1200E-13  0.1230E-13  0.1260E-13  0.1280E-13  0.1320E-13  0.1370E-13  0.1430E-13  0.1480E-13  0.1500E-13
  0.1000E+16  0.2050E-14  0.1900E-14  0.1730E-14  0.1560E-14  0.1280E-14  0.1160E-14  0.1190E-14  0.1230E-14  0.1250E-14  0.1290E-14  0.1340E-14  0.1390E-14  0.1440E-14  0.1460E-14
  0.1000E+17  0.2030E-15  0.1880E-15  0.1720E-15  0.1550E-15  0.1310E-15  0.1180E-15  0.1190E-15  0.1220E-15  0.1240E-15  0.1270E-15  0.1310E-15  0.1360E-15  0.1400E-15  0.1420E-15
WAVELENGTH(A)= 
  4681.380
 7 14 t 
excit   
    10.800     16.200     26.900     53.900    108.000    269.000    539.000    808.000   1080.000   1620.000   2690.000   5390.000  10800.000  16200.000 
  0.1000E+11  0.7120E-12  0.9170E-12  0.1110E-11  0.1300E-11  0.2280E-11  0.5760E-11  0.7680E-11  0.8120E-11  0.8200E-11  0.8040E-11  0.7590E-11  0.6710E-11  0.5700E-11  0.5110E-11
  0.1000E+12  0.7820E-12  0.9840E-12  0.1170E-11  0.1350E-11  0.2140E-11  0.4370E-11  0.5280E-11  0.5440E-11  0.5450E-11  0.5360E-11  0.5130E-11  0.4700E-11  0.4190E-11  0.3880E-11
  0.1000E+13  0.4850E-12  0.5730E-12  0.6470E-12  0.7110E-12  0.8940E-12  0.1010E-11  0.9830E-12  0.9690E-12  0.9620E-12  0.9530E-12  0.9440E-12  0.9290E-12  0.9110E-12  0.8980E-12
  0.1000E+14  0.9370E-13  0.9430E-13  0.9260E-13  0.8950E-13  0.7730E-13  0.6100E-13  0.5880E-13  0.5930E-13  0.5990E-13  0.6120E-13  0.6300E-13  0.6530E-13  0.6760E-13  0.6880E-13
  0.1000E+15  0.8220E-14  0.7660E-14  0.7050E-14  0.6430E-14  0.5410E-14  0.4740E-14  0.4820E-14  0.4940E-14  0.5040E-14  0.5190E-14  0.5370E-14  0.5600E-14  0.5780E-14  0.5870E-14
  0.1000E+16  0.7910E-15  0.7310E-15  0.6680E-15  0.6050E-15  0.5110E-15  0.4570E-15  0.4680E-15  0.4800E-15  0.4900E-15  0.5050E-15  0.5230E-15  0.5460E-15  0.5640E-15  0.5720E-15
  0.1000E+17  0.7880E-16  0.7270E-16  0.6640E-16  0.6020E-16  0.5140E-16  0.4570E-16  0.4620E-16  0.4710E-16  0.4790E-16  0.4910E-16  0.5070E-16  0.5280E-16  0.5450E-16  0.5540E-16
WAVELENGTH(A)= 
  5315.980
 7 14 t 
excit   
    10.800     16.200     26.900     53.900    108.000    269.000    539.000    808.000   1080.000   1620.000   2690.000   5390.000  10800.000  16200.000 
  0.1000E+11  0.7030E-11  0.8320E-11  0.9590E-11  0.1080E-10  0.1550E-10  0.3290E-10  0.4270E-10  0.4520E-10  0.4580E-10  0.4550E-10  0.4370E-10  0.3970E-10  0.3480E-10  0.3170E-10
  0.1000E+12  0.7160E-11  0.8380E-11  0.9540E-11  0.1060E-10  0.1390E-10  0.2180E-10  0.2410E-10  0.2430E-10  0.2420E-10  0.2380E-10  0.2300E-10  0.2160E-10  0.2000E-10  0.1890E-10
  0.1000E+13  0.3270E-11  0.3610E-11  0.3870E-11  0.4030E-11  0.3800E-11  0.2540E-11  0.2080E-11  0.1970E-11  0.1930E-11  0.1900E-11  0.1900E-11  0.1920E-11  0.1980E-11  0.2020E-11
  0.1000E+14  0.2680E-12  0.2500E-12  0.2310E-12  0.2080E-12  0.1300E-12  0.7540E-13  0.6960E-13  0.6980E-13  0.7070E-13  0.7250E-13  0.7520E-13  0.7930E-13  0.8360E-13  0.8620E-13
  0.1000E+15  0.1350E-13  0.1160E-13  0.1010E-13  0.8630E-14  0.6060E-14  0.4960E-14  0.5100E-14  0.5270E-14  0.5410E-14  0.5610E-14  0.5870E-14  0.6190E-14  0.6450E-14  0.6590E-14
  0.1000E+16  0.1170E-14  0.1000E-14  0.8650E-15  0.7360E-15  0.5420E-15  0.4740E-15  0.4920E-15  0.5090E-15  0.5230E-15  0.5430E-15  0.5680E-15  0.5980E-15  0.6230E-15  0.6350E-15
  0.1000E+17  0.1150E-15  0.9890E-16  0.8510E-16  0.7280E-16  0.5620E-16  0.4930E-16  0.5020E-16  0.5140E-16  0.5250E-16  0.5410E-16  0.5610E-16  0.5870E-16  0.6100E-16  0.6210E-16
WAVELENGTH(A)= 
  5451.230
 7 14 t 
excit   
    10.800     16.200     26.900     53.900    108.000    269.000    539.000    808.000   1080.000   1620.000   2690.000   5390.000  10800.000  16200.000 
  0.1000E+11  0.7570E-12  0.9300E-12  0.1100E-11  0.1270E-11  0.2310E-11  0.6520E-11  0.9300E-11  0.1020E-10  0.1050E-10  0.1070E-10  0.1050E-10  0.9830E-11  0.8780E-11  0.8090E-11
  0.1000E+12  0.7580E-12  0.9310E-12  0.1100E-11  0.1270E-11  0.2280E-11  0.5820E-11  0.7670E-11  0.8160E-11  0.8330E-11  0.8380E-11  0.8220E-11  0.7750E-11  0.7070E-11  0.6610E-11
  0.1000E+13  0.7030E-12  0.8300E-12  0.9420E-12  0.1050E-11  0.1430E-11  0.1680E-11  0.1610E-11  0.1580E-11  0.1570E-11  0.1560E-11  0.1560E-11  0.1570E-11  0.1570E-11  0.1580E-11
  0.1000E+14  0.1710E-12  0.1690E-12  0.1640E-12  0.1560E-12  0.1250E-12  0.8650E-13  0.8070E-13  0.8070E-13  0.8140E-13  0.8310E-13  0.8570E-13  0.8970E-13  0.9380E-13  0.9630E-13
  0.1000E+15  0.1360E-13  0.1220E-13  0.1090E-13  0.9610E-14  0.7450E-14  0.6180E-14  0.6220E-14  0.6360E-14  0.6490E-14  0.6680E-14  0.6940E-14  0.7250E-14  0.7530E-14  0.7660E-14
  0.1000E+16  0.1270E-14  0.1120E-14  0.9880E-15  0.8640E-15  0.6810E-15  0.5900E-15  0.6000E-15  0.6150E-15  0.6280E-15  0.6470E-15  0.6720E-15  0.7020E-15  0.7280E-15  0.7400E-15
  0.1000E+17  0.1260E-15  0.1110E-15  0.9770E-16  0.8560E-16  0.6940E-16  0.6030E-16  0.6050E-16  0.6160E-16  0.6260E-16  0.6410E-16  0.6620E-16  0.6890E-16  0.7120E-16  0.7240E-16
WAVELENGTH(A)= 
  5553.000
 7 14 t 
excit   
    10.800     16.200     26.900     53.900    108.000    269.000    539.000    808.000   1080.000   1620.000   2690.000   5390.000  10800.000  16200.000 
  0.1000E+11  0.1670E-11  0.1990E-11  0.2280E-11  0.2580E-11  0.3900E-11  0.8850E-11  0.1190E-10  0.1270E-10  0.1290E-10  0.1280E-10  0.1240E-10  0.1120E-10  0.9800E-11  0.8930E-11
  0.1000E+12  0.1490E-11  0.1780E-11  0.2060E-11  0.2340E-11  0.3680E-11  0.8490E-11  0.1110E-10  0.1170E-10  0.1180E-10  0.1170E-10  0.1120E-10  0.1030E-10  0.9050E-11  0.8310E-11
  0.1000E+13  0.1320E-11  0.1590E-11  0.1850E-11  0.2090E-11  0.2830E-11  0.3480E-11  0.3410E-11  0.3360E-11  0.3320E-11  0.3280E-11  0.3230E-11  0.3150E-11  0.3060E-11  0.3000E-11
  0.1000E+14  0.3730E-12  0.3830E-12  0.3830E-12  0.3720E-12  0.2930E-12  0.2100E-12  0.1980E-12  0.1980E-12  0.1990E-12  0.2030E-12  0.2080E-12  0.2150E-12  0.2230E-12  0.2270E-12
  0.1000E+15  0.2830E-13  0.2640E-13  0.2430E-13  0.2190E-13  0.1710E-13  0.1490E-13  0.1520E-13  0.1560E-13  0.1590E-13  0.1630E-13  0.1690E-13  0.1760E-13  0.1810E-13  0.1840E-13
  0.1000E+16  0.2590E-14  0.2380E-14  0.2170E-14  0.1940E-14  0.1550E-14  0.1410E-14  0.1460E-14  0.1500E-14  0.1530E-14  0.1570E-14  0.1630E-14  0.1690E-14  0.1750E-14  0.1770E-14
  0.1000E+17  0.2560E-15  0.2350E-15  0.2140E-15  0.1920E-15  0.1580E-15  0.1420E-15  0.1440E-15  0.1470E-15  0.1490E-15  0.1530E-15  0.1580E-15  0.1640E-15  0.1690E-15  0.1710E-15
WAVELENGTH(A)= 
  5977.110
 7 14 t 
excit   
    10.800     16.200     26.900     53.900    108.000    269.000    539.000    808.000   1080.000   1620.000   2690.000   5390.000  10800.000  16200.000 
  0.1000E+11  0.3320E-12  0.4370E-12  0.5350E-12  0.6960E-12  0.2400E-11  0.9580E-11  0.1470E-10  0.1650E-10  0.1740E-10  0.1810E-10  0.1820E-10  0.1760E-10  0.1610E-10  0.1510E-10
  0.1000E+12  0.5760E-12  0.7480E-12  0.9210E-12  0.1140E-11  0.2800E-11  0.8800E-11  0.1210E-10  0.1320E-10  0.1370E-10  0.1400E-10  0.1410E-10  0.1360E-10  0.1280E-10  0.1210E-10
  0.1000E+13  0.8490E-12  0.1010E-11  0.1140E-11  0.1280E-11  0.1870E-11  0.2260E-11  0.2170E-11  0.2150E-11  0.2150E-11  0.2180E-11  0.2220E-11  0.2310E-11  0.2400E-11  0.2450E-11
  0.1000E+14  0.2160E-12  0.2100E-12  0.1990E-12  0.1880E-12  0.1540E-12  0.1090E-12  0.1020E-12  0.1020E-12  0.1030E-12  0.1060E-12  0.1090E-12  0.1160E-12  0.1220E-12  0.1270E-12
  0.1000E+15  0.1910E-13  0.1690E-13  0.1490E-13  0.1320E-13  0.1030E-13  0.8250E-14  0.8110E-14  0.8240E-14  0.8370E-14  0.8600E-14  0.8930E-14  0.9370E-14  0.9760E-14  0.9970E-14
  0.1000E+16  0.1830E-14  0.1600E-14  0.1400E-14  0.1230E-14  0.9770E-15  0.8030E-15  0.7950E-15  0.8070E-15  0.8200E-15  0.8430E-15  0.8730E-15  0.9140E-15  0.9490E-15  0.9670E-15
  0.1000E+17  0.1820E-15  0.1590E-15  0.1400E-15  0.1220E-15  0.1000E-15  0.8430E-16  0.8280E-16  0.8360E-16  0.8450E-16  0.8620E-16  0.8870E-16  0.9210E-16  0.9510E-16  0.9670E-16
WAVELENGTH(A)= 
  6021.960
 7 14 t 
excit   
    10.800     16.200     26.900     53.900    108.000    269.000    539.000    808.000   1080.000   1620.000   2690.000   5390.000  10800.000  16200.000 
  0.1000E+11  0.1670E-10  0.1940E-10  0.2210E-10  0.2440E-10  0.3150E-10  0.5600E-10  0.6890E-10  0.7160E-10  0.7200E-10  0.7070E-10  0.6740E-10  0.6090E-10  0.5310E-10  0.4840E-10
  0.1000E+12  0.1320E-10  0.1490E-10  0.1650E-10  0.1770E-10  0.2030E-10  0.2430E-10  0.2430E-10  0.2390E-10  0.2360E-10  0.2300E-10  0.2240E-10  0.2150E-10  0.2040E-10  0.1980E-10
  0.1000E+13  0.3140E-11  0.3210E-11  0.3220E-11  0.3160E-11  0.2510E-11  0.1410E-11  0.1130E-11  0.1070E-11  0.1040E-11  0.1030E-11  0.1040E-11  0.1060E-11  0.1110E-11  0.1150E-11
  0.1000E+14  0.1390E-12  0.1240E-12  0.1100E-12  0.9650E-13  0.6250E-13  0.3840E-13  0.3570E-13  0.3580E-13  0.3630E-13  0.3730E-13  0.3870E-13  0.4080E-13  0.4300E-13  0.4430E-13
  0.1000E+15  0.6800E-14  0.5800E-14  0.4980E-14  0.4260E-14  0.3150E-14  0.2600E-14  0.2650E-14  0.2730E-14  0.2800E-14  0.2910E-14  0.3040E-14  0.3200E-14  0.3340E-14  0.3410E-14
  0.1000E+16  0.6040E-15  0.5140E-15  0.4390E-15  0.3750E-15  0.2870E-15  0.2480E-15  0.2560E-15  0.2640E-15  0.2710E-15  0.2810E-15  0.2940E-15  0.3100E-15  0.3220E-15  0.3290E-15
  0.1000E+17  0.5970E-16  0.5080E-16  0.4340E-16  0.3710E-16  0.2920E-16  0.2530E-16  0.2570E-16  0.2630E-16  0.2680E-16  0.2770E-16  0.2880E-16  0.3020E-16  0.3140E-16  0.3200E-16
WAVELENGTH(A)= 
  7006.780
 7 14 t 
excit   
    10.800     16.200     26.900     53.900    108.000    269.000    539.000    808.000   1080.000   1620.000   2690.000   5390.000  10800.000  16200.000 
  0.1000E+11  0.7200E-12  0.8850E-12  0.1040E-11  0.1210E-11  0.2200E-11  0.6210E-11  0.8850E-11  0.9700E-11  0.1000E-10  0.1020E-10  0.1000E-10  0.9360E-11  0.8360E-11  0.7700E-11
  0.1000E+12  0.7220E-12  0.8870E-12  0.1050E-11  0.1210E-11  0.2170E-11  0.5540E-11  0.7300E-11  0.7770E-11  0.7930E-11  0.7970E-11  0.7830E-11  0.7380E-11  0.6730E-11  0.6290E-11
  0.1000E+13  0.6690E-12  0.7900E-12  0.8970E-12  0.9970E-12  0.1360E-11  0.1600E-11  0.1530E-11  0.1500E-11  0.1490E-11  0.1490E-11  0.1490E-11  0.1490E-11  0.1500E-11  0.1500E-11
  0.1000E+14  0.1630E-12  0.1610E-12  0.1560E-12  0.1490E-12  0.1190E-12  0.8230E-13  0.7680E-13  0.7680E-13  0.7750E-13  0.7910E-13  0.8160E-13  0.8530E-13  0.8930E-13  0.9170E-13
  0.1000E+15  0.1300E-13  0.1160E-13  0.1030E-13  0.9140E-14  0.7090E-14  0.5880E-14  0.5920E-14  0.6060E-14  0.6180E-14  0.6360E-14  0.6600E-14  0.6900E-14  0.7160E-14  0.7290E-14
  0.1000E+16  0.1210E-14  0.1070E-14  0.9400E-15  0.8220E-15  0.6480E-15  0.5610E-15  0.5710E-15  0.5850E-15  0.5970E-15  0.6160E-15  0.6390E-15  0.6690E-15  0.6930E-15  0.7050E-15
  0.1000E+17  0.1200E-15  0.1060E-15  0.9300E-16  0.8150E-16  0.6600E-16  0.5740E-16  0.5760E-16  0.5860E-16  0.5950E-16  0.6100E-16  0.6300E-16  0.6560E-16  0.6780E-16  0.6890E-16
WAVELENGTH(A)= 
  7296.980
 7 14 t 
excit   
    10.800     16.200     26.900     53.900    108.000    269.000    539.000    808.000   1080.000   1620.000   2690.000   5390.000  10800.000  16200.000 
  0.1000E+11  0.8120E-11  0.9690E-11  0.1120E-10  0.1340E-10  0.3180E-10  0.1070E-09  0.1580E-09  0.1760E-09  0.1840E-09  0.1910E-09  0.1920E-09  0.1850E-09  0.1690E-09  0.1580E-09
  0.1000E+12  0.8510E-11  0.1010E-10  0.1160E-10  0.1370E-10  0.2900E-10  0.7500E-10  0.9560E-10  0.1020E-09  0.1050E-09  0.1080E-09  0.1090E-09  0.1090E-09  0.1060E-09  0.1020E-09
  0.1000E+13  0.8180E-11  0.8810E-11  0.9280E-11  0.9710E-11  0.1110E-10  0.8300E-11  0.6770E-11  0.6480E-11  0.6430E-11  0.6530E-11  0.6830E-11  0.7470E-11  0.8340E-11  0.8940E-11
  0.1000E+14  0.1140E-11  0.9500E-12  0.7970E-12  0.6650E-12  0.3680E-12  0.1660E-12  0.1420E-12  0.1410E-12  0.1430E-12  0.1480E-12  0.1570E-12  0.1720E-12  0.1900E-12  0.2010E-12
  0.1000E+15  0.5540E-13  0.4100E-13  0.3140E-13  0.2420E-13  0.1410E-13  0.9390E-14  0.9160E-14  0.9390E-14  0.9640E-14  0.1010E-13  0.1070E-13  0.1150E-13  0.1230E-13  0.1280E-13
  0.1000E+16  0.4660E-14  0.3410E-14  0.2580E-14  0.1970E-14  0.1230E-14  0.9130E-15  0.9060E-15  0.9290E-15  0.9530E-15  0.9920E-15  0.1050E-14  0.1120E-14  0.1190E-14  0.1220E-14
  0.1000E+17  0.4570E-15  0.3340E-15  0.2520E-15  0.1940E-15  0.1350E-15  0.1070E-15  0.1060E-15  0.1070E-15  0.1090E-15  0.1120E-15  0.1160E-15  0.1210E-15  0.1260E-15  0.1280E-15
WAVELENGTH(A)= 
  8243.820
 7 14 t 
excit   
    10.800     16.200     26.900     53.900    108.000    269.000    539.000    808.000   1080.000   1620.000   2690.000   5390.000  10800.000  16200.000 
  0.1000E+11  0.1370E-11  0.1690E-11  0.2000E-11  0.2590E-11  0.8950E-11  0.3440E-10  0.5170E-10  0.5750E-10  0.6000E-10  0.6160E-10  0.6130E-10  0.5790E-10  0.5220E-10  0.4830E-10
  0.1000E+12  0.1740E-11  0.2150E-11  0.2560E-11  0.3220E-11  0.9160E-11  0.2950E-10  0.4040E-10  0.4380E-10  0.4540E-10  0.4670E-10  0.4720E-10  0.4610E-10  0.4330E-10  0.4100E-10
  0.1000E+13  0.2650E-11  0.3010E-11  0.3310E-11  0.3640E-11  0.5260E-11  0.5300E-11  0.4680E-11  0.4570E-11  0.4570E-11  0.4670E-11  0.4880E-11  0.5310E-11  0.5840E-11  0.6180E-11
  0.1000E+14  0.6920E-12  0.6080E-12  0.5340E-12  0.4660E-12  0.3020E-12  0.1530E-12  0.1310E-12  0.1290E-12  0.1300E-12  0.1340E-12  0.1410E-12  0.1540E-12  0.1690E-12  0.1790E-12
  0.1000E+15  0.4580E-13  0.3560E-13  0.2840E-13  0.2270E-13  0.1430E-13  0.9460E-14  0.8970E-14  0.9070E-14  0.9250E-14  0.9570E-14  0.1010E-13  0.1080E-13  0.1150E-13  0.1190E-13
  0.1000E+16  0.4060E-14  0.3110E-14  0.2440E-14  0.1940E-14  0.1300E-14  0.9590E-15  0.9220E-15  0.9300E-15  0.9450E-15  0.9710E-15  0.1010E-14  0.1070E-14  0.1120E-14  0.1150E-14
  0.1000E+17  0.4010E-15  0.3060E-15  0.2400E-15  0.1920E-15  0.1450E-15  0.1190E-15  0.1150E-15  0.1140E-15  0.1150E-15  0.1160E-15  0.1190E-15  0.1220E-15  0.1250E-15  0.1260E-15
WAVELENGTH(A)= 
  8539.350
 7 14 t 
excit   
    10.800     16.200     26.900     53.900    108.000    269.000    539.000    808.000   1080.000   1620.000   2690.000   5390.000  10800.000  16200.000 
  0.1000E+11  0.1450E-10  0.1690E-10  0.1920E-10  0.2110E-10  0.2590E-10  0.4130E-10  0.4820E-10  0.4940E-10  0.4940E-10  0.4840E-10  0.4610E-10  0.4200E-10  0.3710E-10  0.3410E-10
  0.1000E+12  0.9300E-11  0.1040E-10  0.1130E-10  0.1200E-10  0.1240E-10  0.1200E-10  0.1110E-10  0.1070E-10  0.1050E-10  0.1020E-10  0.9950E-11  0.9660E-11  0.9410E-11  0.9270E-11
  0.1000E+13  0.1410E-11  0.1430E-11  0.1430E-11  0.1390E-11  0.1040E-11  0.5270E-12  0.4110E-12  0.3860E-12  0.3770E-12  0.3730E-12  0.3740E-12  0.3860E-12  0.4050E-12  0.4210E-12
  0.1000E+14  0.5290E-13  0.4690E-13  0.4160E-13  0.3650E-13  0.2270E-13  0.1340E-13  0.1240E-13  0.1250E-13  0.1270E-13  0.1300E-13  0.1350E-13  0.1430E-13  0.1510E-13  0.1550E-13
  0.1000E+15  0.2430E-14  0.2070E-14  0.1780E-14  0.1510E-14  0.1100E-14  0.9040E-15  0.9250E-15  0.9550E-15  0.9800E-15  0.1020E-14  0.1060E-14  0.1120E-14  0.1170E-14  0.1200E-14
  0.1000E+16  0.2140E-15  0.1820E-15  0.1550E-15  0.1320E-15  0.9930E-16  0.8630E-16  0.8920E-16  0.9230E-16  0.9480E-16  0.9840E-16  0.1030E-15  0.1090E-15  0.1130E-15  0.1150E-15
  0.1000E+17  0.2110E-16  0.1790E-16  0.1530E-16  0.1300E-16  0.1020E-16  0.8830E-17  0.8980E-17  0.9210E-17  0.9400E-17  0.9700E-17  0.1010E-16  0.1060E-16  0.1100E-16  0.1120E-16
WAVELENGTH(A)= 
  8570.450
 7 14 t 
excit   
    10.800     16.200     26.900     53.900    108.000    269.000    539.000    808.000   1080.000   1620.000   2690.000   5390.000  10800.000  16200.000 
  0.1000E+11  0.7380E-11  0.8790E-11  0.1020E-10  0.1150E-10  0.1670E-10  0.3540E-10  0.4600E-10  0.4900E-10  0.5000E-10  0.5010E-10  0.4880E-10  0.4540E-10  0.4070E-10  0.3760E-10
  0.1000E+12  0.5670E-11  0.6530E-11  0.7300E-11  0.7980E-11  0.1040E-10  0.1540E-10  0.1660E-10  0.1670E-10  0.1670E-10  0.1660E-10  0.1640E-10  0.1600E-10  0.1550E-10  0.1510E-10
  0.1000E+13  0.1610E-11  0.1690E-11  0.1740E-11  0.1760E-11  0.1660E-11  0.1140E-11  0.9480E-12  0.9050E-12  0.8910E-12  0.8860E-12  0.8960E-12  0.9280E-12  0.9760E-12  0.1010E-11
  0.1000E+14  0.1150E-12  0.1040E-12  0.9330E-13  0.8310E-13  0.5640E-13  0.3480E-13  0.3230E-13  0.3250E-13  0.3300E-13  0.3390E-13  0.3530E-13  0.3730E-13  0.3950E-13  0.4080E-13
  0.1000E+15  0.6810E-14  0.5740E-14  0.4870E-14  0.4130E-14  0.3000E-14  0.2420E-14  0.2450E-14  0.2530E-14  0.2590E-14  0.2690E-14  0.2820E-14  0.2970E-14  0.3110E-14  0.3180E-14
  0.1000E+16  0.6190E-15  0.5170E-15  0.4350E-15  0.3670E-15  0.2750E-15  0.2320E-15  0.2370E-15  0.2450E-15  0.2510E-15  0.2610E-15  0.2730E-15  0.2880E-15  0.3010E-15  0.3070E-15
  0.1000E+17  0.6130E-16  0.5110E-16  0.4300E-16  0.3640E-16  0.2820E-16  0.2390E-16  0.2420E-16  0.2470E-16  0.2520E-16  0.2600E-16  0.2700E-16  0.2830E-16  0.2950E-16  0.3010E-16
WAVELENGTH(A)= 
  8915.990
 7 14 t 
excit   
    10.800     16.200     26.900     53.900    108.000    269.000    539.000    808.000   1080.000   1620.000   2690.000   5390.000  10800.000  16200.000 
  0.1000E+11  0.1070E-11  0.1260E-11  0.1460E-11  0.1640E-11  0.2360E-11  0.5000E-11  0.6490E-11  0.6870E-11  0.6970E-11  0.6910E-11  0.6640E-11  0.6030E-11  0.5280E-11  0.4820E-11
  0.1000E+12  0.1090E-11  0.1270E-11  0.1450E-11  0.1610E-11  0.2110E-11  0.3320E-11  0.3670E-11  0.3700E-11  0.3680E-11  0.3610E-11  0.3490E-11  0.3280E-11  0.3030E-11  0.2870E-11
  0.1000E+13  0.4970E-12  0.5490E-12  0.5880E-12  0.6120E-12  0.5770E-12  0.3860E-12  0.3160E-12  0.3000E-12  0.2930E-12  0.2890E-12  0.2880E-12  0.2930E-12  0.3010E-12  0.3080E-12
  0.1000E+14  0.4080E-13  0.3810E-13  0.3510E-13  0.3160E-13  0.1980E-13  0.1150E-13  0.1060E-13  0.1060E-13  0.1070E-13  0.1100E-13  0.1140E-13  0.1210E-13  0.1270E-13  0.1310E-13
  0.1000E+15  0.2050E-14  0.1770E-14  0.1530E-14  0.1310E-14  0.9210E-15  0.7550E-15  0.7750E-15  0.8010E-15  0.8220E-15  0.8530E-15  0.8920E-15  0.9410E-15  0.9810E-15  0.1000E-14
  0.1000E+16  0.1780E-15  0.1530E-15  0.1310E-15  0.1120E-15  0.8240E-16  0.7200E-16  0.7480E-16  0.7740E-16  0.7950E-16  0.8250E-16  0.8630E-16  0.9090E-16  0.9470E-16  0.9650E-16
  0.1000E+17  0.1750E-16  0.1500E-16  0.1290E-16  0.1110E-16  0.8540E-17  0.7490E-17  0.7630E-17  0.7820E-17  0.7970E-17  0.8220E-17  0.8530E-17  0.8930E-17  0.9270E-17  0.9440E-17
WAVELENGTH(A)= 
  9869.520
 7 14 t 
excit   
    10.800     16.200     26.900     53.900    108.000    269.000    539.000    808.000   1080.000   1620.000   2690.000   5390.000  10800.000  16200.000 
  0.1000E+11  0.7130E-13  0.9780E-13  0.1240E-12  0.2330E-12  0.1700E-11  0.7580E-11  0.1160E-10  0.1290E-10  0.1350E-10  0.1380E-10  0.1360E-10  0.1270E-10  0.1120E-10  0.1030E-10
  0.1000E+12  0.1450E-12  0.1960E-12  0.2480E-12  0.3780E-12  0.1870E-11  0.7450E-11  0.1070E-10  0.1180E-10  0.1230E-10  0.1270E-10  0.1280E-10  0.1250E-10  0.1150E-10  0.1080E-10
  0.1000E+13  0.5800E-12  0.6790E-12  0.7620E-12  0.8660E-12  0.1490E-11  0.1810E-11  0.1690E-11  0.1670E-11  0.1680E-11  0.1720E-11  0.1800E-11  0.1960E-11  0.2140E-11  0.2250E-11
  0.1000E+14  0.2460E-12  0.2220E-12  0.1990E-12  0.1790E-12  0.1310E-12  0.7500E-13  0.6450E-13  0.6320E-13  0.6340E-13  0.6470E-13  0.6750E-13  0.7280E-13  0.7920E-13  0.8350E-13
  0.1000E+15  0.2110E-13  0.1710E-13  0.1400E-13  0.1150E-13  0.7940E-14  0.5300E-14  0.4860E-14  0.4830E-14  0.4870E-14  0.4970E-14  0.5140E-14  0.5440E-14  0.5740E-14  0.5920E-14
  0.1000E+16  0.1980E-14  0.1580E-14  0.1280E-14  0.1050E-14  0.7570E-15  0.5490E-15  0.5100E-15  0.5050E-15  0.5070E-15  0.5140E-15  0.5260E-15  0.5480E-15  0.5700E-15  0.5820E-15
  0.1000E+17  0.1970E-15  0.1560E-15  0.1270E-15  0.1050E-15  0.8410E-16  0.6980E-16  0.6590E-16  0.6490E-16  0.6460E-16  0.6460E-16  0.6480E-16  0.6540E-16  0.6610E-16  0.6640E-16
