 50  7 14
WAVELENGTH(A)= 
    47.933
 7 14 t 
excit   
     8.340     12.500     20.900     41.700     83.400    209.000    417.000    626.000    834.000   1250.000   2090.000   4170.000   8340.000  12500.000 
  0.1000E+11  0.1700E-27  0.5370E-23  0.2460E-19  0.4440E-15  0.9660E-13  0.1350E-11  0.2280E-11  0.2520E-11  0.2580E-11  0.2570E-11  0.2430E-11  0.2160E-11  0.1810E-11  0.1610E-11
  0.1000E+12  0.7090E-26  0.2110E-21  0.7270E-18  0.6630E-14  0.1360E-11  0.1170E-10  0.1690E-10  0.1770E-10  0.1760E-10  0.1690E-10  0.1530E-10  0.1270E-10  0.1000E-10  0.8560E-11
  0.1000E+13  0.3070E-24  0.8260E-20  0.2390E-16  0.7030E-13  0.4870E-11  0.2110E-10  0.2890E-10  0.3080E-10  0.3130E-10  0.3100E-10  0.2960E-10  0.2680E-10  0.2320E-10  0.2100E-10
  0.1000E+14  0.7380E-23  0.1850E-18  0.5060E-15  0.2700E-12  0.4660E-11  0.1890E-10  0.2650E-10  0.2850E-10  0.2900E-10  0.2890E-10  0.2770E-10  0.2500E-10  0.2180E-10  0.1980E-10
  0.1000E+15  0.1760E-22  0.3810E-18  0.9610E-15  0.2950E-12  0.4480E-11  0.1850E-10  0.2620E-10  0.2810E-10  0.2870E-10  0.2860E-10  0.2730E-10  0.2470E-10  0.2140E-10  0.1940E-10
  0.1000E+16  0.1910E-22  0.4030E-18  0.1000E-14  0.2950E-12  0.4450E-11  0.1850E-10  0.2610E-10  0.2810E-10  0.2860E-10  0.2850E-10  0.2730E-10  0.2460E-10  0.2140E-10  0.1940E-10
  0.1000E+17  0.1920E-22  0.4050E-18  0.1000E-14  0.2950E-12  0.4450E-11  0.1850E-10  0.2610E-10  0.2810E-10  0.2860E-10  0.2850E-10  0.2730E-10  0.2460E-10  0.2130E-10  0.1940E-10
WAVELENGTH(A)= 
    51.312
 7 14 t 
excit   
     8.340     12.500     20.900     41.700     83.400    209.000    417.000    626.000    834.000   1250.000   2090.000   4170.000   8340.000  12500.000 
  0.1000E+11  0.8140E-24  0.1100E-19  0.1780E-16  0.8680E-14  0.5310E-12  0.2920E-11  0.3790E-11  0.3930E-11  0.3940E-11  0.3920E-11  0.3840E-11  0.3630E-11  0.3370E-11  0.3190E-11
  0.1000E+12  0.1330E-23  0.1730E-19  0.2770E-16  0.3530E-13  0.1750E-11  0.6260E-11  0.7400E-11  0.7390E-11  0.7210E-11  0.6860E-11  0.6300E-11  0.5430E-11  0.4560E-11  0.4060E-11
  0.1000E+13  0.5350E-23  0.6420E-19  0.9630E-16  0.9900E-13  0.2210E-11  0.6030E-11  0.7570E-11  0.7870E-11  0.7890E-11  0.7740E-11  0.7360E-11  0.6610E-11  0.5770E-11  0.5250E-11
  0.1000E+14  0.3480E-22  0.3700E-18  0.5100E-15  0.1430E-12  0.1530E-11  0.5010E-11  0.6620E-11  0.6980E-11  0.7030E-11  0.6920E-11  0.6590E-11  0.5890E-11  0.5100E-11  0.4620E-11
  0.1000E+15  0.6240E-22  0.5600E-18  0.6990E-15  0.1260E-12  0.1420E-11  0.4880E-11  0.6510E-11  0.6860E-11  0.6920E-11  0.6820E-11  0.6480E-11  0.5790E-11  0.5000E-11  0.4520E-11
  0.1000E+16  0.6550E-22  0.5720E-18  0.7020E-15  0.1230E-12  0.1410E-11  0.4870E-11  0.6500E-11  0.6850E-11  0.6910E-11  0.6810E-11  0.6470E-11  0.5780E-11  0.4990E-11  0.4510E-11
  0.1000E+17  0.6580E-22  0.5730E-18  0.7020E-15  0.1230E-12  0.1410E-11  0.4870E-11  0.6490E-11  0.6850E-11  0.6900E-11  0.6810E-11  0.6470E-11  0.5780E-11  0.4990E-11  0.4510E-11
WAVELENGTH(A)= 
    52.264
 7 14 t 
excit   
     8.340     12.500     20.900     41.700     83.400    209.000    417.000    626.000    834.000   1250.000   2090.000   4170.000   8340.000  12500.000 
  0.1000E+11  0.1320E-25  0.1780E-21  0.3290E-18  0.1590E-14  0.1950E-12  0.1760E-11  0.2680E-11  0.2870E-11  0.2910E-11  0.2870E-11  0.2720E-11  0.2430E-11  0.2090E-11  0.1890E-11
  0.1000E+12  0.1690E-24  0.2160E-20  0.3660E-17  0.1450E-13  0.1700E-11  0.1100E-10  0.1480E-10  0.1520E-10  0.1500E-10  0.1430E-10  0.1280E-10  0.1070E-10  0.8450E-11  0.7270E-11
  0.1000E+13  0.3400E-23  0.3900E-19  0.5710E-16  0.9600E-13  0.4770E-11  0.1720E-10  0.2230E-10  0.2340E-10  0.2360E-10  0.2320E-10  0.2190E-10  0.1970E-10  0.1700E-10  0.1540E-10
  0.1000E+14  0.6790E-22  0.7210E-18  0.9950E-15  0.3180E-12  0.4280E-11  0.1490E-10  0.1990E-10  0.2100E-10  0.2130E-10  0.2100E-10  0.1990E-10  0.1780E-10  0.1540E-10  0.1390E-10
  0.1000E+15  0.1610E-21  0.1470E-17  0.1870E-14  0.3430E-12  0.4070E-11  0.1450E-10  0.1960E-10  0.2070E-10  0.2090E-10  0.2060E-10  0.1950E-10  0.1750E-10  0.1500E-10  0.1360E-10
  0.1000E+16  0.1740E-21  0.1550E-17  0.1950E-14  0.3430E-12  0.4050E-11  0.1450E-10  0.1950E-10  0.2060E-10  0.2090E-10  0.2060E-10  0.1950E-10  0.1740E-10  0.1500E-10  0.1360E-10
  0.1000E+17  0.1750E-21  0.1560E-17  0.1950E-14  0.3430E-12  0.4050E-11  0.1450E-10  0.1950E-10  0.2060E-10  0.2090E-10  0.2060E-10  0.1950E-10  0.1740E-10  0.1500E-10  0.1360E-10
WAVELENGTH(A)= 
    52.585
 7 14 t 
excit   
     8.340     12.500     20.900     41.700     83.400    209.000    417.000    626.000    834.000   1250.000   2090.000   4170.000   8340.000  12500.000 
  0.1000E+11  0.4330E-21  0.3180E-17  0.3150E-14  0.4410E-12  0.3570E-11  0.6750E-11  0.6930E-11  0.6830E-11  0.6770E-11  0.6700E-11  0.6670E-11  0.6680E-11  0.6780E-11  0.6870E-11
  0.1000E+12  0.4260E-21  0.3090E-17  0.3020E-14  0.4020E-12  0.2740E-11  0.4240E-11  0.4020E-11  0.3820E-11  0.3670E-11  0.3480E-11  0.3260E-11  0.2960E-11  0.2690E-11  0.2540E-11
  0.1000E+13  0.4120E-21  0.2980E-17  0.2910E-14  0.3310E-12  0.9050E-12  0.9540E-12  0.9960E-12  0.9960E-12  0.9870E-12  0.9640E-12  0.9270E-12  0.8650E-12  0.8040E-12  0.7710E-12
  0.1000E+14  0.2540E-21  0.1650E-17  0.1540E-14  0.7210E-13  0.1870E-12  0.4540E-12  0.5660E-12  0.5870E-12  0.5870E-12  0.5740E-12  0.5420E-12  0.4820E-12  0.4190E-12  0.3820E-12
  0.1000E+15  0.5970E-22  0.3040E-18  0.2410E-15  0.1840E-13  0.1390E-12  0.4150E-12  0.5310E-12  0.5520E-12  0.5530E-12  0.5400E-12  0.5090E-12  0.4500E-12  0.3860E-12  0.3490E-12
  0.1000E+16  0.3370E-22  0.1610E-18  0.1220E-15  0.1460E-13  0.1350E-12  0.4120E-12  0.5270E-12  0.5490E-12  0.5500E-12  0.5370E-12  0.5050E-12  0.4470E-12  0.3830E-12  0.3460E-12
  0.1000E+17  0.3120E-22  0.1480E-18  0.1110E-15  0.1430E-13  0.1340E-12  0.4110E-12  0.5270E-12  0.5490E-12  0.5490E-12  0.5370E-12  0.5050E-12  0.4460E-12  0.3820E-12  0.3460E-12
WAVELENGTH(A)= 
    53.309
 7 14 t 
excit   
     8.340     12.500     20.900     41.700     83.400    209.000    417.000    626.000    834.000   1250.000   2090.000   4170.000   8340.000  12500.000 
  0.1000E+11  0.2970E-20  0.1920E-16  0.1720E-13  0.2220E-11  0.1730E-10  0.3200E-10  0.3260E-10  0.3210E-10  0.3170E-10  0.3130E-10  0.3110E-10  0.3130E-10  0.3160E-10  0.3190E-10
  0.1000E+12  0.2930E-20  0.1860E-16  0.1650E-13  0.2030E-11  0.1330E-10  0.1990E-10  0.1870E-10  0.1770E-10  0.1700E-10  0.1610E-10  0.1500E-10  0.1370E-10  0.1240E-10  0.1170E-10
  0.1000E+13  0.2830E-20  0.1800E-16  0.1590E-13  0.1660E-11  0.4260E-11  0.4080E-11  0.4140E-11  0.4100E-11  0.4050E-11  0.3950E-11  0.3810E-11  0.3590E-11  0.3370E-11  0.3250E-11
  0.1000E+14  0.1720E-20  0.9860E-17  0.8310E-14  0.3480E-12  0.7550E-12  0.1710E-11  0.2100E-11  0.2170E-11  0.2160E-11  0.2110E-11  0.1990E-11  0.1780E-11  0.1540E-11  0.1410E-11
  0.1000E+15  0.3620E-21  0.1620E-17  0.1170E-14  0.7610E-13  0.5260E-12  0.1530E-11  0.1930E-11  0.2010E-11  0.2000E-11  0.1950E-11  0.1840E-11  0.1630E-11  0.1390E-11  0.1260E-11
  0.1000E+16  0.1790E-21  0.7520E-18  0.5180E-15  0.5730E-13  0.5060E-12  0.1510E-11  0.1920E-11  0.1990E-11  0.1990E-11  0.1940E-11  0.1820E-11  0.1610E-11  0.1380E-11  0.1240E-11
  0.1000E+17  0.1610E-21  0.6710E-18  0.4580E-15  0.5550E-13  0.5040E-12  0.1510E-11  0.1920E-11  0.1990E-11  0.1990E-11  0.1940E-11  0.1820E-11  0.1610E-11  0.1380E-11  0.1240E-11
WAVELENGTH(A)= 
    53.485
 7 14 t 
excit   
     8.340     12.500     20.900     41.700     83.400    209.000    417.000    626.000    834.000   1250.000   2090.000   4170.000   8340.000  12500.000 
  0.1000E+11  0.6380E-21  0.3990E-17  0.3490E-14  0.4440E-12  0.3430E-11  0.6340E-11  0.6460E-11  0.6350E-11  0.6270E-11  0.6230E-11  0.6160E-11  0.6180E-11  0.6250E-11  0.6300E-11
  0.1000E+12  0.6280E-21  0.3880E-17  0.3340E-14  0.4050E-12  0.2660E-11  0.4060E-11  0.3850E-11  0.3650E-11  0.3510E-11  0.3330E-11  0.3090E-11  0.2810E-11  0.2530E-11  0.2380E-11
  0.1000E+13  0.6080E-21  0.3750E-17  0.3230E-14  0.3350E-12  0.9230E-12  0.1040E-11  0.1100E-11  0.1100E-11  0.1090E-11  0.1070E-11  0.1020E-11  0.9410E-12  0.8630E-12  0.8170E-12
  0.1000E+14  0.3810E-21  0.2110E-17  0.1730E-14  0.7740E-13  0.2240E-12  0.5540E-12  0.6890E-12  0.7120E-12  0.7110E-12  0.6950E-12  0.6530E-12  0.5810E-12  0.5020E-12  0.4560E-12
  0.1000E+15  0.1030E-21  0.4420E-18  0.3080E-15  0.2310E-13  0.1760E-12  0.5150E-12  0.6540E-12  0.6780E-12  0.6780E-12  0.6630E-12  0.6210E-12  0.5490E-12  0.4700E-12  0.4240E-12
  0.1000E+16  0.6530E-22  0.2650E-18  0.1770E-15  0.1930E-13  0.1710E-12  0.5110E-12  0.6500E-12  0.6750E-12  0.6750E-12  0.6590E-12  0.6180E-12  0.5460E-12  0.4670E-12  0.4210E-12
  0.1000E+17  0.6160E-22  0.2490E-18  0.1650E-15  0.1900E-13  0.1710E-12  0.5110E-12  0.6500E-12  0.6750E-12  0.6740E-12  0.6590E-12  0.6170E-12  0.5460E-12  0.4670E-12  0.4210E-12
WAVELENGTH(A)= 
    53.892
 7 14 t 
excit   
     8.340     12.500     20.900     41.700     83.400    209.000    417.000    626.000    834.000   1250.000   2090.000   4170.000   8340.000  12500.000 
  0.1000E+11  0.3530E-21  0.2070E-17  0.1710E-14  0.2080E-12  0.1570E-11  0.2860E-11  0.2890E-11  0.2840E-11  0.2810E-11  0.2770E-11  0.2750E-11  0.2760E-11  0.2790E-11  0.2810E-11
  0.1000E+12  0.3480E-21  0.2010E-17  0.1640E-14  0.1890E-12  0.1210E-11  0.1810E-11  0.1710E-11  0.1610E-11  0.1550E-11  0.1460E-11  0.1370E-11  0.1240E-11  0.1120E-11  0.1050E-11
  0.1000E+13  0.3370E-21  0.1940E-17  0.1580E-14  0.1560E-12  0.4150E-12  0.4460E-12  0.4680E-12  0.4670E-12  0.4630E-12  0.4500E-12  0.4300E-12  0.3990E-12  0.3670E-12  0.3490E-12
  0.1000E+14  0.2100E-21  0.1090E-17  0.8440E-15  0.3560E-13  0.9540E-13  0.2280E-12  0.2820E-12  0.2910E-12  0.2910E-12  0.2830E-12  0.2660E-12  0.2370E-12  0.2050E-12  0.1860E-12
  0.1000E+15  0.5400E-22  0.2180E-18  0.1440E-15  0.1010E-13  0.7330E-13  0.2110E-12  0.2660E-12  0.2760E-12  0.2760E-12  0.2680E-12  0.2520E-12  0.2230E-12  0.1900E-12  0.1720E-12
  0.1000E+16  0.3300E-22  0.1250E-18  0.7920E-16  0.8260E-14  0.7130E-13  0.2090E-12  0.2650E-12  0.2740E-12  0.2740E-12  0.2670E-12  0.2500E-12  0.2210E-12  0.1890E-12  0.1700E-12
  0.1000E+17  0.3090E-22  0.1160E-18  0.7330E-16  0.8090E-14  0.7110E-13  0.2090E-12  0.2650E-12  0.2740E-12  0.2740E-12  0.2670E-12  0.2500E-12  0.2210E-12  0.1890E-12  0.1700E-12
WAVELENGTH(A)= 
    54.994
 7 14 t 
excit   
     8.340     12.500     20.900     41.700     83.400    209.000    417.000    626.000    834.000   1250.000   2090.000   4170.000   8340.000  12500.000 
  0.1000E+11  0.3840E-23  0.2710E-19  0.2630E-16  0.8340E-14  0.4100E-12  0.2000E-11  0.2500E-11  0.2560E-11  0.2560E-11  0.2520E-11  0.2430E-11  0.2280E-11  0.2110E-11  0.1990E-11
  0.1000E+12  0.6040E-23  0.4120E-19  0.3950E-16  0.3270E-13  0.1310E-11  0.4040E-11  0.4540E-11  0.4460E-11  0.4330E-11  0.4080E-11  0.3720E-11  0.3200E-11  0.2680E-11  0.2400E-11
  0.1000E+13  0.2170E-22  0.1370E-18  0.1230E-15  0.8400E-13  0.1430E-11  0.3200E-11  0.3810E-11  0.3900E-11  0.3880E-11  0.3780E-11  0.3570E-11  0.3200E-11  0.2790E-11  0.2550E-11
  0.1000E+14  0.1160E-21  0.6460E-18  0.5330E-15  0.1000E-12  0.8470E-12  0.2450E-11  0.3120E-11  0.3240E-11  0.3250E-11  0.3170E-11  0.2990E-11  0.2650E-11  0.2280E-11  0.2060E-11
  0.1000E+15  0.1890E-21  0.8910E-18  0.6640E-15  0.8130E-13  0.7650E-12  0.2360E-11  0.3040E-11  0.3170E-11  0.3170E-11  0.3100E-11  0.2920E-11  0.2580E-11  0.2210E-11  0.1990E-11
  0.1000E+16  0.1960E-21  0.8970E-18  0.6570E-15  0.7870E-13  0.7560E-12  0.2350E-11  0.3030E-11  0.3160E-11  0.3170E-11  0.3090E-11  0.2910E-11  0.2570E-11  0.2200E-11  0.1980E-11
  0.1000E+17  0.1970E-21  0.8980E-18  0.6560E-15  0.7840E-13  0.7550E-12  0.2350E-11  0.3030E-11  0.3160E-11  0.3160E-11  0.3090E-11  0.2910E-11  0.2570E-11  0.2200E-11  0.1980E-11
WAVELENGTH(A)= 
    55.212
 7 14 t 
excit   
     8.340     12.500     20.900     41.700     83.400    209.000    417.000    626.000    834.000   1250.000   2090.000   4170.000   8340.000  12500.000 
  0.1000E+11  0.3760E-21  0.2420E-17  0.2180E-14  0.2820E-12  0.2190E-11  0.4050E-11  0.4130E-11  0.4060E-11  0.4010E-11  0.3960E-11  0.3940E-11  0.3960E-11  0.4000E-11  0.4030E-11
  0.1000E+12  0.3700E-21  0.2360E-17  0.2080E-14  0.2560E-12  0.1680E-11  0.2520E-11  0.2370E-11  0.2240E-11  0.2150E-11  0.2040E-11  0.1900E-11  0.1740E-11  0.1570E-11  0.1480E-11
  0.1000E+13  0.3580E-21  0.2270E-17  0.2010E-14  0.2100E-12  0.5400E-12  0.5170E-12  0.5230E-12  0.5190E-12  0.5120E-12  0.5000E-12  0.4820E-12  0.4550E-12  0.4270E-12  0.4110E-12
  0.1000E+14  0.2180E-21  0.1250E-17  0.1050E-14  0.4410E-13  0.9560E-13  0.2160E-12  0.2660E-12  0.2740E-12  0.2740E-12  0.2670E-12  0.2520E-12  0.2250E-12  0.1950E-12  0.1780E-12
  0.1000E+15  0.4580E-22  0.2060E-18  0.1480E-15  0.9630E-14  0.6660E-13  0.1930E-12  0.2450E-12  0.2540E-12  0.2540E-12  0.2470E-12  0.2320E-12  0.2060E-12  0.1760E-12  0.1590E-12
  0.1000E+16  0.2270E-22  0.9520E-19  0.6550E-16  0.7250E-14  0.6400E-13  0.1910E-12  0.2430E-12  0.2520E-12  0.2520E-12  0.2450E-12  0.2300E-12  0.2040E-12  0.1740E-12  0.1570E-12
  0.1000E+17  0.2040E-22  0.8490E-19  0.5800E-16  0.7020E-14  0.6380E-13  0.1910E-12  0.2420E-12  0.2520E-12  0.2510E-12  0.2450E-12  0.2300E-12  0.2040E-12  0.1740E-12  0.1570E-12
WAVELENGTH(A)= 
    55.243
 7 14 t 
excit   
     8.340     12.500     20.900     41.700     83.400    209.000    417.000    626.000    834.000   1250.000   2090.000   4170.000   8340.000  12500.000 
  0.1000E+11  0.8160E-21  0.3810E-17  0.2630E-14  0.2800E-12  0.1980E-11  0.3480E-11  0.3490E-11  0.3410E-11  0.3360E-11  0.3310E-11  0.3280E-11  0.3280E-11  0.3320E-11  0.3340E-11
  0.1000E+12  0.8030E-21  0.3700E-17  0.2510E-14  0.2560E-12  0.1550E-11  0.2300E-11  0.2170E-11  0.2050E-11  0.1960E-11  0.1850E-11  0.1720E-11  0.1550E-11  0.1390E-11  0.1300E-11
  0.1000E+13  0.7810E-21  0.3590E-17  0.2440E-14  0.2140E-12  0.5800E-12  0.6640E-12  0.7020E-12  0.7000E-12  0.6910E-12  0.6710E-12  0.6390E-12  0.5880E-12  0.5360E-12  0.5040E-12
  0.1000E+14  0.5030E-21  0.2070E-17  0.1340E-14  0.5330E-13  0.1550E-12  0.3670E-12  0.4490E-12  0.4610E-12  0.4590E-12  0.4470E-12  0.4190E-12  0.3720E-12  0.3220E-12  0.2920E-12
  0.1000E+15  0.1490E-21  0.4780E-18  0.2620E-15  0.1740E-13  0.1230E-12  0.3420E-12  0.4260E-12  0.4390E-12  0.4380E-12  0.4260E-12  0.3990E-12  0.3520E-12  0.3020E-12  0.2720E-12
  0.1000E+16  0.1000E-21  0.3040E-18  0.1600E-15  0.1480E-13  0.1200E-12  0.3400E-12  0.4240E-12  0.4370E-12  0.4360E-12  0.4240E-12  0.3970E-12  0.3500E-12  0.3000E-12  0.2700E-12
  0.1000E+17  0.9560E-22  0.2870E-18  0.1510E-15  0.1450E-13  0.1200E-12  0.3390E-12  0.4240E-12  0.4370E-12  0.4360E-12  0.4240E-12  0.3970E-12  0.3500E-12  0.2990E-12  0.2700E-12
WAVELENGTH(A)= 
   911.427
 7 14 t 
excit   
     8.340     12.500     20.900     41.700     83.400    209.000    417.000    626.000    834.000   1250.000   2090.000   4170.000   8340.000  12500.000 
  0.1000E+11  0.8010E-14  0.8860E-14  0.8780E-14  0.9220E-13  0.8070E-12  0.1860E-11  0.2030E-11  0.2020E-11  0.2010E-11  0.1990E-11  0.1960E-11  0.1940E-11  0.1910E-11  0.1900E-11
  0.1000E+12  0.1120E-13  0.1240E-13  0.1230E-13  0.1180E-12  0.8660E-12  0.1370E-11  0.1290E-11  0.1220E-11  0.1180E-11  0.1120E-11  0.1050E-11  0.9700E-12  0.8870E-12  0.8390E-12
  0.1000E+13  0.2310E-13  0.2500E-13  0.2360E-13  0.1140E-12  0.2490E-12  0.1790E-12  0.1590E-12  0.1530E-12  0.1510E-12  0.1490E-12  0.1480E-12  0.1490E-12  0.1510E-12  0.1530E-12
  0.1000E+14  0.1880E-13  0.1850E-13  0.1660E-13  0.2060E-13  0.1590E-13  0.1330E-13  0.1260E-13  0.1230E-13  0.1220E-13  0.1210E-13  0.1200E-13  0.1200E-13  0.1200E-13  0.1200E-13
  0.1000E+15  0.2740E-14  0.2280E-14  0.1850E-14  0.1570E-14  0.1400E-14  0.1270E-14  0.1220E-14  0.1200E-14  0.1190E-14  0.1170E-14  0.1160E-14  0.1160E-14  0.1150E-14  0.1150E-14
  0.1000E+16  0.2770E-15  0.2240E-15  0.1790E-15  0.1490E-15  0.1380E-15  0.1260E-15  0.1210E-15  0.1190E-15  0.1180E-15  0.1170E-15  0.1160E-15  0.1150E-15  0.1150E-15  0.1150E-15
  0.1000E+17  0.2770E-16  0.2230E-16  0.1780E-16  0.1480E-16  0.1380E-16  0.1260E-16  0.1210E-16  0.1190E-16  0.1180E-16  0.1170E-16  0.1160E-16  0.1150E-16  0.1150E-16  0.1150E-16
WAVELENGTH(A)= 
  1138.040
 7 14 t 
excit   
     8.340     12.500     20.900     41.700     83.400    209.000    417.000    626.000    834.000   1250.000   2090.000   4170.000   8340.000  12500.000 
  0.1000E+11  0.1420E-11  0.1410E-11  0.1210E-11  0.2290E-11  0.1290E-10  0.2810E-10  0.3030E-10  0.3020E-10  0.2990E-10  0.2960E-10  0.2920E-10  0.2890E-10  0.2860E-10  0.2840E-10
  0.1000E+12  0.1380E-11  0.1360E-11  0.1150E-11  0.2470E-11  0.1340E-10  0.2100E-10  0.1970E-10  0.1860E-10  0.1790E-10  0.1700E-10  0.1600E-10  0.1470E-10  0.1340E-10  0.1270E-10
  0.1000E+13  0.1180E-11  0.1160E-11  0.9760E-12  0.2190E-11  0.3870E-11  0.2530E-11  0.2190E-11  0.2100E-11  0.2070E-11  0.2040E-11  0.2030E-11  0.2060E-11  0.2100E-11  0.2140E-11
  0.1000E+14  0.4700E-12  0.4220E-12  0.3480E-12  0.3330E-12  0.2190E-12  0.1740E-12  0.1630E-12  0.1590E-12  0.1580E-12  0.1560E-12  0.1550E-12  0.1540E-12  0.1550E-12  0.1550E-12
  0.1000E+15  0.5050E-13  0.3790E-13  0.2830E-13  0.2190E-13  0.1860E-13  0.1640E-13  0.1560E-13  0.1530E-13  0.1520E-13  0.1500E-13  0.1490E-13  0.1480E-13  0.1470E-13  0.1470E-13
  0.1000E+16  0.4850E-14  0.3520E-14  0.2580E-14  0.2040E-14  0.1830E-14  0.1630E-14  0.1560E-14  0.1530E-14  0.1510E-14  0.1490E-14  0.1480E-14  0.1470E-14  0.1460E-14  0.1460E-14
  0.1000E+17  0.4820E-15  0.3490E-15  0.2550E-15  0.2020E-15  0.1820E-15  0.1630E-15  0.1560E-15  0.1530E-15  0.1510E-15  0.1490E-15  0.1480E-15  0.1470E-15  0.1460E-15  0.1460E-15
WAVELENGTH(A)= 
  1223.660
 7 14 t 
excit   
     8.340     12.500     20.900     41.700     83.400    209.000    417.000    626.000    834.000   1250.000   2090.000   4170.000   8340.000  12500.000 
  0.1000E+11  0.5850E-15  0.8320E-15  0.1560E-14  0.8750E-13  0.7910E-12  0.1860E-11  0.2080E-11  0.2090E-11  0.2080E-11  0.2050E-11  0.2020E-11  0.1970E-11  0.1920E-11  0.1900E-11
  0.1000E+12  0.2170E-14  0.2940E-14  0.3920E-14  0.1060E-12  0.1040E-11  0.2620E-11  0.2860E-11  0.2800E-11  0.2710E-11  0.2570E-11  0.2360E-11  0.2050E-11  0.1740E-11  0.1570E-11
  0.1000E+13  0.1710E-13  0.2230E-13  0.2490E-13  0.1970E-12  0.8150E-12  0.8560E-12  0.8120E-12  0.7950E-12  0.7860E-12  0.7760E-12  0.7680E-12  0.7580E-12  0.7480E-12  0.7400E-12
  0.1000E+14  0.4600E-13  0.5400E-13  0.5550E-13  0.8670E-13  0.8690E-13  0.7900E-13  0.7600E-13  0.7490E-13  0.7440E-13  0.7380E-13  0.7340E-13  0.7310E-13  0.7310E-13  0.7320E-13
  0.1000E+15  0.9910E-14  0.9880E-14  0.9250E-14  0.8730E-14  0.8250E-14  0.7730E-14  0.7480E-14  0.7380E-14  0.7330E-14  0.7280E-14  0.7230E-14  0.7200E-14  0.7180E-14  0.7170E-14
  0.1000E+16  0.1060E-14  0.1020E-14  0.9450E-15  0.8640E-15  0.8200E-15  0.7710E-15  0.7470E-15  0.7370E-15  0.7320E-15  0.7270E-15  0.7220E-15  0.7180E-15  0.7160E-15  0.7160E-15
  0.1000E+17  0.1060E-15  0.1030E-15  0.9460E-16  0.8630E-16  0.8190E-16  0.7710E-16  0.7470E-16  0.7370E-16  0.7320E-16  0.7260E-16  0.7220E-16  0.7180E-16  0.7160E-16  0.7150E-16
WAVELENGTH(A)= 
  1235.530
 7 14 t 
excit   
     8.340     12.500     20.900     41.700     83.400    209.000    417.000    626.000    834.000   1250.000   2090.000   4170.000   8340.000  12500.000 
  0.1000E+11  0.3900E-15  0.5730E-15  0.1170E-14  0.7650E-13  0.7730E-12  0.2080E-11  0.2410E-11  0.2440E-11  0.2430E-11  0.2400E-11  0.2350E-11  0.2260E-11  0.2170E-11  0.2120E-11
  0.1000E+12  0.2220E-14  0.3040E-14  0.4050E-14  0.1180E-12  0.1310E-11  0.3620E-11  0.4070E-11  0.4000E-11  0.3890E-11  0.3680E-11  0.3360E-11  0.2900E-11  0.2430E-11  0.2170E-11
  0.1000E+13  0.1840E-13  0.2450E-13  0.2790E-13  0.2590E-12  0.1250E-11  0.1480E-11  0.1440E-11  0.1420E-11  0.1400E-11  0.1380E-11  0.1360E-11  0.1330E-11  0.1300E-11  0.1270E-11
  0.1000E+14  0.6520E-13  0.8010E-13  0.8570E-13  0.1450E-12  0.1590E-12  0.1510E-12  0.1470E-12  0.1450E-12  0.1440E-12  0.1430E-12  0.1420E-12  0.1420E-12  0.1410E-12  0.1410E-12
  0.1000E+15  0.1610E-13  0.1680E-13  0.1640E-13  0.1610E-13  0.1570E-13  0.1500E-13  0.1460E-13  0.1450E-13  0.1440E-13  0.1430E-13  0.1420E-13  0.1410E-13  0.1410E-13  0.1410E-13
  0.1000E+16  0.1740E-14  0.1780E-14  0.1710E-14  0.1610E-14  0.1570E-14  0.1500E-14  0.1460E-14  0.1450E-14  0.1440E-14  0.1430E-14  0.1420E-14  0.1410E-14  0.1410E-14  0.1410E-14
  0.1000E+17  0.1760E-15  0.1790E-15  0.1720E-15  0.1610E-15  0.1570E-15  0.1500E-15  0.1460E-15  0.1450E-15  0.1440E-15  0.1430E-15  0.1420E-15  0.1410E-15  0.1410E-15  0.1410E-15
WAVELENGTH(A)= 
  1317.700
 7 14 t 
excit   
     8.340     12.500     20.900     41.700     83.400    209.000    417.000    626.000    834.000   1250.000   2090.000   4170.000   8340.000  12500.000 
  0.1000E+11  0.1620E-12  0.1670E-12  0.1650E-12  0.2500E-11  0.1760E-10  0.2560E-10  0.2370E-10  0.2290E-10  0.2260E-10  0.2250E-10  0.2290E-10  0.2410E-10  0.2590E-10  0.2710E-10
  0.1000E+12  0.1390E-12  0.1370E-12  0.1270E-12  0.1460E-11  0.5720E-11  0.4850E-11  0.3930E-11  0.3630E-11  0.3470E-11  0.3320E-11  0.3200E-11  0.3110E-11  0.3070E-11  0.3060E-11
  0.1000E+13  0.9440E-13  0.8770E-13  0.7430E-13  0.3730E-12  0.5250E-12  0.2960E-12  0.2520E-12  0.2420E-12  0.2380E-12  0.2350E-12  0.2340E-12  0.2380E-12  0.2460E-12  0.2510E-12
  0.1000E+14  0.4560E-13  0.3820E-13  0.3010E-13  0.3510E-13  0.2460E-13  0.1980E-13  0.1860E-13  0.1820E-13  0.1800E-13  0.1780E-13  0.1760E-13  0.1760E-13  0.1760E-13  0.1760E-13
  0.1000E+15  0.6260E-14  0.4410E-14  0.3140E-14  0.2430E-14  0.2110E-14  0.1880E-14  0.1790E-14  0.1750E-14  0.1730E-14  0.1720E-14  0.1700E-14  0.1680E-14  0.1680E-14  0.1670E-14
  0.1000E+16  0.6300E-15  0.4310E-15  0.3010E-15  0.2290E-15  0.2070E-15  0.1870E-15  0.1780E-15  0.1750E-15  0.1730E-15  0.1710E-15  0.1690E-15  0.1680E-15  0.1670E-15  0.1670E-15
  0.1000E+17  0.6300E-16  0.4300E-16  0.2990E-16  0.2280E-16  0.2070E-16  0.1870E-16  0.1780E-16  0.1740E-16  0.1730E-16  0.1710E-16  0.1690E-16  0.1680E-16  0.1670E-16  0.1660E-16
WAVELENGTH(A)= 
  1405.520
 7 14 t 
excit   
     8.340     12.500     20.900     41.700     83.400    209.000    417.000    626.000    834.000   1250.000   2090.000   4170.000   8340.000  12500.000 
  0.1000E+11  0.5220E-15  0.7410E-15  0.1440E-14  0.8490E-13  0.7550E-12  0.1770E-11  0.1980E-11  0.2000E-11  0.1990E-11  0.1970E-11  0.1930E-11  0.1890E-11  0.1840E-11  0.1820E-11
  0.1000E+12  0.1110E-14  0.1510E-14  0.2260E-14  0.9010E-13  0.9830E-12  0.2850E-11  0.3250E-11  0.3220E-11  0.3130E-11  0.2960E-11  0.2690E-11  0.2310E-11  0.1920E-11  0.1710E-11
  0.1000E+13  0.1120E-13  0.1520E-13  0.1790E-13  0.1920E-12  0.1060E-11  0.1280E-11  0.1230E-11  0.1210E-11  0.1200E-11  0.1180E-11  0.1160E-11  0.1140E-11  0.1110E-11  0.1090E-11
  0.1000E+14  0.6350E-13  0.7550E-13  0.7910E-13  0.1310E-12  0.1390E-12  0.1270E-12  0.1220E-12  0.1200E-12  0.1190E-12  0.1180E-12  0.1170E-12  0.1170E-12  0.1160E-12  0.1160E-12
  0.1000E+15  0.1760E-13  0.1680E-13  0.1530E-13  0.1420E-13  0.1340E-13  0.1250E-13  0.1200E-13  0.1190E-13  0.1180E-13  0.1170E-13  0.1160E-13  0.1150E-13  0.1150E-13  0.1150E-13
  0.1000E+16  0.1940E-14  0.1780E-14  0.1580E-14  0.1410E-14  0.1330E-14  0.1240E-14  0.1200E-14  0.1180E-14  0.1180E-14  0.1170E-14  0.1160E-14  0.1150E-14  0.1150E-14  0.1150E-14
  0.1000E+17  0.1950E-15  0.1790E-15  0.1580E-15  0.1410E-15  0.1330E-15  0.1240E-15  0.1200E-15  0.1180E-15  0.1180E-15  0.1170E-15  0.1160E-15  0.1150E-15  0.1150E-15  0.1150E-15
WAVELENGTH(A)= 
  1477.340
 7 14 t 
excit   
     8.340     12.500     20.900     41.700     83.400    209.000    417.000    626.000    834.000   1250.000   2090.000   4170.000   8340.000  12500.000 
  0.1000E+11  0.8620E-15  0.1120E-14  0.1750E-14  0.8740E-13  0.8860E-12  0.2370E-11  0.2720E-11  0.2750E-11  0.2740E-11  0.2710E-11  0.2650E-11  0.2570E-11  0.2480E-11  0.2430E-11
  0.1000E+12  0.2990E-14  0.3770E-14  0.4640E-14  0.1250E-12  0.1370E-11  0.3330E-11  0.3540E-11  0.3450E-11  0.3340E-11  0.3170E-11  0.2920E-11  0.2570E-11  0.2220E-11  0.2020E-11
  0.1000E+13  0.2060E-13  0.2510E-13  0.2680E-13  0.2280E-12  0.9130E-12  0.9000E-12  0.8450E-12  0.8260E-12  0.8150E-12  0.8050E-12  0.7960E-12  0.7880E-12  0.7800E-12  0.7730E-12
  0.1000E+14  0.5470E-13  0.5990E-13  0.5850E-13  0.9030E-13  0.9010E-13  0.8150E-13  0.7830E-13  0.7710E-13  0.7650E-13  0.7590E-13  0.7540E-13  0.7500E-13  0.7490E-13  0.7500E-13
  0.1000E+15  0.1200E-13  0.1110E-13  0.9870E-14  0.9010E-14  0.8520E-14  0.7980E-14  0.7710E-14  0.7600E-14  0.7550E-14  0.7490E-14  0.7430E-14  0.7390E-14  0.7370E-14  0.7360E-14
  0.1000E+16  0.1280E-14  0.1160E-14  0.1010E-14  0.8910E-15  0.8470E-15  0.7960E-15  0.7700E-15  0.7590E-15  0.7540E-15  0.7480E-15  0.7420E-15  0.7380E-15  0.7350E-15  0.7340E-15
  0.1000E+17  0.1290E-15  0.1160E-15  0.1010E-15  0.8900E-16  0.8460E-16  0.7960E-16  0.7690E-16  0.7590E-16  0.7530E-16  0.7470E-16  0.7420E-16  0.7380E-16  0.7350E-16  0.7340E-16
WAVELENGTH(A)= 
  1496.420
 7 14 t 
excit   
     8.340     12.500     20.900     41.700     83.400    209.000    417.000    626.000    834.000   1250.000   2090.000   4170.000   8340.000  12500.000 
  0.1000E+11  0.5980E-15  0.8160E-15  0.1500E-14  0.9420E-13  0.1030E-11  0.2930E-11  0.3400E-11  0.3440E-11  0.3430E-11  0.3390E-11  0.3320E-11  0.3210E-11  0.3080E-11  0.3000E-11
  0.1000E+12  0.4110E-14  0.5180E-14  0.6250E-14  0.1550E-12  0.1700E-11  0.3960E-11  0.4170E-11  0.4050E-11  0.3920E-11  0.3720E-11  0.3440E-11  0.3050E-11  0.2640E-11  0.2420E-11
  0.1000E+13  0.2530E-13  0.3020E-13  0.3140E-13  0.2530E-12  0.1020E-11  0.1050E-11  0.9980E-12  0.9780E-12  0.9670E-12  0.9550E-12  0.9440E-12  0.9330E-12  0.9200E-12  0.9110E-12
  0.1000E+14  0.5630E-13  0.6340E-13  0.6320E-13  0.1000E-12  0.1060E-12  0.9850E-13  0.9510E-13  0.9390E-13  0.9320E-13  0.9250E-13  0.9200E-13  0.9160E-13  0.9150E-13  0.9150E-13
  0.1000E+15  0.1260E-13  0.1230E-13  0.1130E-13  0.1060E-13  0.1020E-13  0.9690E-14  0.9410E-14  0.9300E-14  0.9230E-14  0.9160E-14  0.9110E-14  0.9060E-14  0.9040E-14  0.9030E-14
  0.1000E+16  0.1350E-14  0.1290E-14  0.1170E-14  0.1060E-14  0.1010E-14  0.9670E-15  0.9400E-15  0.9290E-15  0.9220E-15  0.9160E-15  0.9100E-15  0.9050E-15  0.9030E-15  0.9020E-15
  0.1000E+17  0.1360E-15  0.1290E-15  0.1170E-15  0.1060E-15  0.1010E-15  0.9670E-16  0.9390E-16  0.9280E-16  0.9220E-16  0.9150E-16  0.9100E-16  0.9050E-16  0.9020E-16  0.9010E-16
WAVELENGTH(A)= 
  1546.550
 7 14 t 
excit   
     8.340     12.500     20.900     41.700     83.400    209.000    417.000    626.000    834.000   1250.000   2090.000   4170.000   8340.000  12500.000 
  0.1000E+11  0.1820E-11  0.1760E-11  0.1500E-11  0.5180E-11  0.3460E-10  0.6820E-10  0.7130E-10  0.7060E-10  0.7000E-10  0.6930E-10  0.6880E-10  0.6870E-10  0.6900E-10  0.6930E-10
  0.1000E+12  0.1820E-11  0.1740E-11  0.1470E-11  0.5060E-11  0.2940E-10  0.4570E-10  0.4300E-10  0.4070E-10  0.3920E-10  0.3720E-10  0.3490E-10  0.3200E-10  0.2910E-10  0.2750E-10
  0.1000E+13  0.1900E-11  0.1830E-11  0.1560E-11  0.4620E-11  0.8880E-11  0.5820E-11  0.5030E-11  0.4820E-11  0.4740E-11  0.4670E-11  0.4640E-11  0.4690E-11  0.4780E-11  0.4850E-11
  0.1000E+14  0.1270E-11  0.1090E-11  0.8830E-12  0.8480E-12  0.5260E-12  0.4090E-12  0.3810E-12  0.3720E-12  0.3670E-12  0.3630E-12  0.3590E-12  0.3580E-12  0.3580E-12  0.3600E-12
  0.1000E+15  0.1630E-12  0.1110E-12  0.7670E-13  0.5570E-13  0.4500E-13  0.3880E-13  0.3660E-13  0.3580E-13  0.3540E-13  0.3500E-13  0.3460E-13  0.3430E-13  0.3420E-13  0.3410E-13
  0.1000E+16  0.1590E-13  0.1030E-13  0.6890E-14  0.5130E-14  0.4420E-14  0.3860E-14  0.3650E-14  0.3570E-14  0.3530E-14  0.3480E-14  0.3450E-14  0.3420E-14  0.3400E-14  0.3390E-14
  0.1000E+17  0.1580E-14  0.1020E-14  0.6800E-15  0.5090E-15  0.4410E-15  0.3860E-15  0.3640E-15  0.3570E-15  0.3530E-15  0.3480E-15  0.3450E-15  0.3420E-15  0.3400E-15  0.3390E-15
WAVELENGTH(A)= 
  1548.900
 7 14 t 
excit   
     8.340     12.500     20.900     41.700     83.400    209.000    417.000    626.000    834.000   1250.000   2090.000   4170.000   8340.000  12500.000 
  0.1000E+11  0.5460E-14  0.6690E-14  0.7840E-14  0.1610E-12  0.1390E-11  0.3150E-11  0.3460E-11  0.3460E-11  0.3440E-11  0.3400E-11  0.3340E-11  0.3280E-11  0.3220E-11  0.3180E-11
  0.1000E+12  0.8750E-14  0.1070E-13  0.1210E-13  0.1990E-12  0.1680E-11  0.3590E-11  0.3740E-11  0.3630E-11  0.3510E-11  0.3320E-11  0.3070E-11  0.2710E-11  0.2350E-11  0.2150E-11
  0.1000E+13  0.3170E-13  0.3820E-13  0.4000E-13  0.2860E-12  0.9770E-12  0.9370E-12  0.8770E-12  0.8550E-12  0.8440E-12  0.8330E-12  0.8240E-12  0.8150E-12  0.8060E-12  0.8000E-12
  0.1000E+14  0.6480E-13  0.7020E-13  0.6780E-13  0.1000E-12  0.9510E-13  0.8470E-13  0.8110E-13  0.7980E-13  0.7910E-13  0.7840E-13  0.7790E-13  0.7750E-13  0.7750E-13  0.7750E-13
  0.1000E+15  0.1340E-13  0.1230E-13  0.1070E-13  0.9690E-14  0.8970E-14  0.8290E-14  0.7980E-14  0.7860E-14  0.7800E-14  0.7730E-14  0.7680E-14  0.7630E-14  0.7610E-14  0.7600E-14
  0.1000E+16  0.1420E-14  0.1270E-14  0.1090E-14  0.9530E-15  0.8900E-15  0.8270E-15  0.7970E-15  0.7850E-15  0.7790E-15  0.7720E-15  0.7670E-15  0.7620E-15  0.7600E-15  0.7590E-15
  0.1000E+17  0.1430E-15  0.1270E-15  0.1090E-15  0.9520E-16  0.8900E-16  0.8270E-16  0.7970E-16  0.7850E-16  0.7790E-16  0.7720E-16  0.7670E-16  0.7620E-16  0.7590E-16  0.7590E-16
WAVELENGTH(A)= 
  1552.360
 7 14 t 
excit   
     8.340     12.500     20.900     41.700     83.400    209.000    417.000    626.000    834.000   1250.000   2090.000   4170.000   8340.000  12500.000 
  0.1000E+11  0.6620E-14  0.8190E-14  0.1000E-13  0.2540E-12  0.2330E-11  0.5580E-11  0.6190E-11  0.6210E-11  0.6180E-11  0.6100E-11  0.6000E-11  0.5870E-11  0.5730E-11  0.5650E-11
  0.1000E+12  0.1380E-13  0.1700E-13  0.1940E-13  0.3510E-12  0.3010E-11  0.5980E-11  0.6030E-11  0.5790E-11  0.5600E-11  0.5310E-11  0.4940E-11  0.4430E-11  0.3910E-11  0.3610E-11
  0.1000E+13  0.5360E-13  0.6350E-13  0.6560E-13  0.4620E-12  0.1360E-11  0.1150E-11  0.1050E-11  0.1020E-11  0.1000E-11  0.9910E-12  0.9830E-12  0.9820E-12  0.9840E-12  0.9860E-12
  0.1000E+14  0.8190E-13  0.8740E-13  0.8330E-13  0.1200E-12  0.1080E-12  0.9380E-13  0.8940E-13  0.8790E-13  0.8720E-13  0.8640E-13  0.8590E-13  0.8560E-13  0.8570E-13  0.8590E-13
  0.1000E+15  0.1490E-13  0.1360E-13  0.1190E-13  0.1070E-13  0.9830E-14  0.9060E-14  0.8720E-14  0.8590E-14  0.8520E-14  0.8450E-14  0.8390E-14  0.8340E-14  0.8320E-14  0.8310E-14
  0.1000E+16  0.1560E-14  0.1390E-14  0.1190E-14  0.1040E-14  0.9730E-15  0.9030E-15  0.8700E-15  0.8570E-15  0.8500E-15  0.8430E-15  0.8370E-15  0.8320E-15  0.8290E-15  0.8280E-15
  0.1000E+17  0.1560E-15  0.1390E-15  0.1190E-15  0.1040E-15  0.9720E-16  0.9030E-16  0.8700E-16  0.8570E-16  0.8500E-16  0.8430E-16  0.8370E-16  0.8320E-16  0.8290E-16  0.8280E-16
WAVELENGTH(A)= 
  1584.640
 7 14 t 
excit   
     8.340     12.500     20.900     41.700     83.400    209.000    417.000    626.000    834.000   1250.000   2090.000   4170.000   8340.000  12500.000 
  0.1000E+11  0.5650E-15  0.7940E-15  0.1450E-14  0.8490E-13  0.8100E-12  0.2040E-11  0.2330E-11  0.2350E-11  0.2340E-11  0.2320E-11  0.2280E-11  0.2210E-11  0.2150E-11  0.2110E-11
  0.1000E+12  0.1150E-14  0.1600E-14  0.2370E-14  0.9690E-13  0.1160E-11  0.3390E-11  0.3870E-11  0.3820E-11  0.3720E-11  0.3520E-11  0.3210E-11  0.2760E-11  0.2300E-11  0.2050E-11
  0.1000E+13  0.1120E-13  0.1560E-13  0.1870E-13  0.2130E-12  0.1230E-11  0.1490E-11  0.1450E-11  0.1430E-11  0.1420E-11  0.1400E-11  0.1380E-11  0.1350E-11  0.1310E-11  0.1290E-11
  0.1000E+14  0.6380E-13  0.7870E-13  0.8460E-13  0.1460E-12  0.1620E-12  0.1520E-12  0.1470E-12  0.1450E-12  0.1440E-12  0.1430E-12  0.1420E-12  0.1420E-12  0.1410E-12  0.1410E-12
  0.1000E+15  0.1740E-13  0.1780E-13  0.1710E-13  0.1650E-13  0.1590E-13  0.1510E-13  0.1460E-13  0.1450E-13  0.1440E-13  0.1430E-13  0.1420E-13  0.1410E-13  0.1410E-13  0.1410E-13
  0.1000E+16  0.1910E-14  0.1900E-14  0.1780E-14  0.1650E-14  0.1590E-14  0.1510E-14  0.1460E-14  0.1450E-14  0.1440E-14  0.1430E-14  0.1420E-14  0.1410E-14  0.1410E-14  0.1400E-14
  0.1000E+17  0.1930E-15  0.1910E-15  0.1790E-15  0.1650E-15  0.1590E-15  0.1510E-15  0.1460E-15  0.1450E-15  0.1440E-15  0.1430E-15  0.1420E-15  0.1410E-15  0.1410E-15  0.1400E-15
WAVELENGTH(A)= 
  1669.530
 7 14 t 
excit   
     8.340     12.500     20.900     41.700     83.400    209.000    417.000    626.000    834.000   1250.000   2090.000   4170.000   8340.000  12500.000 
  0.1000E+11  0.6220E-15  0.9100E-15  0.2120E-14  0.1540E-12  0.1420E-11  0.3420E-11  0.3860E-11  0.3890E-11  0.3880E-11  0.3840E-11  0.3770E-11  0.3670E-11  0.3570E-11  0.3520E-11
  0.1000E+12  0.2230E-14  0.3020E-14  0.4470E-14  0.1780E-12  0.1950E-11  0.5460E-11  0.6190E-11  0.6100E-11  0.5930E-11  0.5610E-11  0.5110E-11  0.4400E-11  0.3680E-11  0.3280E-11
  0.1000E+13  0.2500E-13  0.3350E-13  0.3900E-13  0.3890E-12  0.1970E-11  0.2290E-11  0.2210E-11  0.2170E-11  0.2150E-11  0.2120E-11  0.2090E-11  0.2050E-11  0.2010E-11  0.1970E-11
  0.1000E+14  0.1110E-12  0.1340E-12  0.1420E-12  0.2350E-12  0.2460E-12  0.2260E-12  0.2180E-12  0.2150E-12  0.2140E-12  0.2120E-12  0.2110E-12  0.2100E-12  0.2100E-12  0.2100E-12
  0.1000E+15  0.2750E-13  0.2770E-13  0.2620E-13  0.2500E-13  0.2380E-13  0.2230E-13  0.2160E-13  0.2130E-13  0.2120E-13  0.2100E-13  0.2090E-13  0.2080E-13  0.2070E-13  0.2070E-13
  0.1000E+16  0.2980E-14  0.2910E-14  0.2700E-14  0.2480E-14  0.2370E-14  0.2230E-14  0.2160E-14  0.2130E-14  0.2120E-14  0.2100E-14  0.2090E-14  0.2080E-14  0.2070E-14  0.2070E-14
  0.1000E+17  0.3000E-15  0.2920E-15  0.2710E-15  0.2480E-15  0.2360E-15  0.2230E-15  0.2160E-15  0.2130E-15  0.2120E-15  0.2100E-15  0.2090E-15  0.2080E-15  0.2070E-15  0.2070E-15
WAVELENGTH(A)= 
  1763.510
 7 14 t 
excit   
     8.340     12.500     20.900     41.700     83.400    209.000    417.000    626.000    834.000   1250.000   2090.000   4170.000   8340.000  12500.000 
  0.1000E+11  0.4190E-14  0.5360E-14  0.7720E-14  0.3230E-12  0.3190E-11  0.8370E-11  0.9560E-11  0.9660E-11  0.9620E-11  0.9520E-11  0.9330E-11  0.9050E-11  0.8750E-11  0.8570E-11
  0.1000E+12  0.1230E-13  0.1550E-13  0.1870E-13  0.4470E-12  0.4830E-11  0.1170E-10  0.1250E-10  0.1220E-10  0.1180E-10  0.1120E-10  0.1030E-10  0.9070E-11  0.7810E-11  0.7090E-11
  0.1000E+13  0.8270E-13  0.1020E-12  0.1080E-12  0.8520E-12  0.3290E-11  0.3200E-11  0.2990E-11  0.2920E-11  0.2880E-11  0.2850E-11  0.2820E-11  0.2790E-11  0.2760E-11  0.2740E-11
  0.1000E+14  0.2050E-12  0.2260E-12  0.2210E-12  0.3330E-12  0.3180E-12  0.2850E-12  0.2730E-12  0.2690E-12  0.2670E-12  0.2650E-12  0.2630E-12  0.2620E-12  0.2620E-12  0.2620E-12
  0.1000E+15  0.4240E-13  0.3950E-13  0.3510E-13  0.3190E-13  0.2990E-13  0.2780E-13  0.2680E-13  0.2650E-13  0.2630E-13  0.2610E-13  0.2590E-13  0.2570E-13  0.2560E-13  0.2560E-13
  0.1000E+16  0.4490E-14  0.4070E-14  0.3550E-14  0.3140E-14  0.2960E-14  0.2770E-14  0.2680E-14  0.2640E-14  0.2620E-14  0.2600E-14  0.2580E-14  0.2570E-14  0.2560E-14  0.2560E-14
  0.1000E+17  0.4520E-15  0.4080E-15  0.3560E-15  0.3130E-15  0.2960E-15  0.2770E-15  0.2680E-15  0.2640E-15  0.2620E-15  0.2600E-15  0.2580E-15  0.2570E-15  0.2560E-15  0.2560E-15
WAVELENGTH(A)= 
  1767.880
 7 14 t 
excit   
     8.340     12.500     20.900     41.700     83.400    209.000    417.000    626.000    834.000   1250.000   2090.000   4170.000   8340.000  12500.000 
  0.1000E+11  0.1300E-14  0.1660E-14  0.2450E-14  0.1110E-12  0.1070E-11  0.2710E-11  0.3060E-11  0.3080E-11  0.3060E-11  0.3030E-11  0.2970E-11  0.2900E-11  0.2810E-11  0.2760E-11
  0.1000E+12  0.4590E-14  0.5670E-14  0.6740E-14  0.1570E-12  0.1520E-11  0.3390E-11  0.3540E-11  0.3430E-11  0.3320E-11  0.3150E-11  0.2910E-11  0.2570E-11  0.2230E-11  0.2040E-11
  0.1000E+13  0.2800E-13  0.3320E-13  0.3460E-13  0.2600E-12  0.9010E-12  0.8580E-12  0.8020E-12  0.7830E-12  0.7730E-12  0.7630E-12  0.7550E-12  0.7480E-12  0.7410E-12  0.7360E-12
  0.1000E+14  0.5680E-13  0.6180E-13  0.6000E-13  0.8970E-13  0.8560E-13  0.7660E-13  0.7350E-13  0.7230E-13  0.7170E-13  0.7110E-13  0.7070E-13  0.7040E-13  0.7030E-13  0.7040E-13
  0.1000E+15  0.1150E-13  0.1070E-13  0.9460E-14  0.8600E-14  0.8040E-14  0.7480E-14  0.7220E-14  0.7120E-14  0.7070E-14  0.7010E-14  0.6960E-14  0.6920E-14  0.6900E-14  0.6890E-14
  0.1000E+16  0.1210E-14  0.1100E-14  0.9600E-15  0.8460E-15  0.7980E-15  0.7460E-15  0.7210E-15  0.7110E-15  0.7060E-15  0.7000E-15  0.6950E-15  0.6910E-15  0.6890E-15  0.6880E-15
  0.1000E+17  0.1220E-15  0.1100E-15  0.9610E-16  0.8450E-16  0.7970E-16  0.7460E-16  0.7210E-16  0.7110E-16  0.7050E-16  0.7000E-16  0.6950E-16  0.6910E-16  0.6890E-16  0.6880E-16
WAVELENGTH(A)= 
  1771.200
 7 14 t 
excit   
     8.340     12.500     20.900     41.700     83.400    209.000    417.000    626.000    834.000   1250.000   2090.000   4170.000   8340.000  12500.000 
  0.1000E+11  0.2210E-14  0.2870E-14  0.4480E-14  0.2240E-12  0.2270E-11  0.6070E-11  0.6960E-11  0.7040E-11  0.7010E-11  0.6930E-11  0.6790E-11  0.6580E-11  0.6350E-11  0.6210E-11
  0.1000E+12  0.7640E-14  0.9640E-14  0.1190E-13  0.3190E-12  0.3520E-11  0.8530E-11  0.9070E-11  0.8830E-11  0.8550E-11  0.8110E-11  0.7480E-11  0.6580E-11  0.5680E-11  0.5160E-11
  0.1000E+13  0.5290E-13  0.6430E-13  0.6850E-13  0.5840E-12  0.2340E-11  0.2300E-11  0.2160E-11  0.2110E-11  0.2090E-11  0.2060E-11  0.2040E-11  0.2020E-11  0.2000E-11  0.1980E-11
  0.1000E+14  0.1400E-12  0.1530E-12  0.1500E-12  0.2310E-12  0.2310E-12  0.2090E-12  0.2000E-12  0.1970E-12  0.1960E-12  0.1940E-12  0.1930E-12  0.1920E-12  0.1920E-12  0.1920E-12
  0.1000E+15  0.3070E-13  0.2850E-13  0.2530E-13  0.2310E-13  0.2180E-13  0.2040E-13  0.1970E-13  0.1950E-13  0.1930E-13  0.1920E-13  0.1900E-13  0.1890E-13  0.1890E-13  0.1880E-13
  0.1000E+16  0.3280E-14  0.2960E-14  0.2590E-14  0.2280E-14  0.2170E-14  0.2040E-14  0.1970E-14  0.1940E-14  0.1930E-14  0.1910E-14  0.1900E-14  0.1890E-14  0.1880E-14  0.1880E-14
  0.1000E+17  0.3300E-15  0.2970E-15  0.2590E-15  0.2280E-15  0.2170E-15  0.2040E-15  0.1970E-15  0.1940E-15  0.1930E-15  0.1910E-15  0.1900E-15  0.1890E-15  0.1880E-15  0.1880E-15
WAVELENGTH(A)= 
  1791.890
 7 14 t 
excit   
     8.340     12.500     20.900     41.700     83.400    209.000    417.000    626.000    834.000   1250.000   2090.000   4170.000   8340.000  12500.000 
  0.1000E+11  0.5170E-14  0.6660E-14  0.9520E-14  0.3800E-12  0.3650E-11  0.9050E-11  0.1010E-10  0.1020E-10  0.1010E-10  0.9920E-11  0.9690E-11  0.9370E-11  0.9040E-11  0.8830E-11
  0.1000E+12  0.3230E-13  0.3940E-13  0.4470E-13  0.7910E-12  0.5900E-11  0.1130E-10  0.1150E-10  0.1100E-10  0.1070E-10  0.1010E-10  0.9330E-11  0.8260E-11  0.7200E-11  0.6600E-11
  0.1000E+13  0.1510E-12  0.1750E-12  0.1780E-12  0.1150E-11  0.2950E-11  0.2580E-11  0.2390E-11  0.2320E-11  0.2290E-11  0.2260E-11  0.2240E-11  0.2220E-11  0.2210E-11  0.2200E-11
  0.1000E+14  0.1960E-12  0.2120E-12  0.2040E-12  0.2900E-12  0.2540E-12  0.2240E-12  0.2150E-12  0.2120E-12  0.2100E-12  0.2080E-12  0.2070E-12  0.2060E-12  0.2060E-12  0.2060E-12
  0.1000E+15  0.3420E-13  0.3170E-13  0.2800E-13  0.2540E-13  0.2350E-13  0.2190E-13  0.2110E-13  0.2080E-13  0.2070E-13  0.2050E-13  0.2040E-13  0.2020E-13  0.2020E-13  0.2010E-13
  0.1000E+16  0.3550E-14  0.3200E-14  0.2790E-14  0.2470E-14  0.2330E-14  0.2180E-14  0.2110E-14  0.2080E-14  0.2060E-14  0.2050E-14  0.2030E-14  0.2020E-14  0.2010E-14  0.2010E-14
  0.1000E+17  0.3560E-15  0.3200E-15  0.2780E-15  0.2460E-15  0.2330E-15  0.2180E-15  0.2110E-15  0.2080E-15  0.2060E-15  0.2050E-15  0.2030E-15  0.2020E-15  0.2010E-15  0.2010E-15
WAVELENGTH(A)= 
  1880.120
 7 14 t 
excit   
     8.340     12.500     20.900     41.700     83.400    209.000    417.000    626.000    834.000   1250.000   2090.000   4170.000   8340.000  12500.000 
  0.1000E+11  0.6430E-14  0.7960E-14  0.9730E-14  0.2470E-12  0.2260E-11  0.5420E-11  0.6020E-11  0.6040E-11  0.6000E-11  0.5930E-11  0.5830E-11  0.5700E-11  0.5570E-11  0.5490E-11
  0.1000E+12  0.1340E-13  0.1650E-13  0.1880E-13  0.3410E-12  0.2920E-11  0.5810E-11  0.5860E-11  0.5630E-11  0.5440E-11  0.5160E-11  0.4800E-11  0.4300E-11  0.3800E-11  0.3510E-11
  0.1000E+13  0.5210E-13  0.6180E-13  0.6370E-13  0.4490E-12  0.1320E-11  0.1110E-11  0.1020E-11  0.9880E-12  0.9750E-12  0.9630E-12  0.9560E-12  0.9540E-12  0.9570E-12  0.9580E-12
  0.1000E+14  0.7960E-13  0.8500E-13  0.8090E-13  0.1170E-12  0.1050E-12  0.9110E-13  0.8690E-13  0.8540E-13  0.8470E-13  0.8400E-13  0.8350E-13  0.8320E-13  0.8330E-13  0.8340E-13
  0.1000E+15  0.1450E-13  0.1330E-13  0.1160E-13  0.1040E-13  0.9560E-14  0.8810E-14  0.8480E-14  0.8350E-14  0.8280E-14  0.8210E-14  0.8160E-14  0.8110E-14  0.8080E-14  0.8080E-14
  0.1000E+16  0.1510E-14  0.1350E-14  0.1160E-14  0.1010E-14  0.9460E-15  0.8780E-15  0.8460E-15  0.8330E-15  0.8260E-15  0.8190E-15  0.8140E-15  0.8090E-15  0.8060E-15  0.8050E-15
  0.1000E+17  0.1520E-15  0.1350E-15  0.1160E-15  0.1010E-15  0.9450E-16  0.8770E-16  0.8450E-16  0.8330E-16  0.8260E-16  0.8190E-16  0.8130E-16  0.8080E-16  0.8060E-16  0.8050E-16
WAVELENGTH(A)= 
  1941.940
 7 14 t 
excit   
     8.340     12.500     20.900     41.700     83.400    209.000    417.000    626.000    834.000   1250.000   2090.000   4170.000   8340.000  12500.000 
  0.1000E+11  0.4800E-14  0.5840E-14  0.7260E-14  0.2140E-12  0.1980E-11  0.4710E-11  0.5220E-11  0.5230E-11  0.5200E-11  0.5150E-11  0.5070E-11  0.4970E-11  0.4860E-11  0.4800E-11
  0.1000E+12  0.1170E-13  0.1400E-13  0.1570E-13  0.2770E-12  0.2460E-11  0.4930E-11  0.4990E-11  0.4800E-11  0.4640E-11  0.4400E-11  0.4090E-11  0.3660E-11  0.3230E-11  0.2980E-11
  0.1000E+13  0.5370E-13  0.6260E-13  0.6340E-13  0.3990E-12  0.1180E-11  0.1010E-11  0.9270E-12  0.9020E-12  0.8890E-12  0.8780E-12  0.8700E-12  0.8670E-12  0.8660E-12  0.8650E-12
  0.1000E+14  0.7850E-13  0.8360E-13  0.7970E-13  0.1110E-12  0.9710E-13  0.8450E-13  0.8070E-13  0.7930E-13  0.7860E-13  0.7790E-13  0.7740E-13  0.7720E-13  0.7720E-13  0.7730E-13
  0.1000E+15  0.1380E-13  0.1250E-13  0.1090E-13  0.9690E-14  0.8890E-14  0.8190E-14  0.7880E-14  0.7770E-14  0.7700E-14  0.7640E-14  0.7580E-14  0.7540E-14  0.7510E-14  0.7510E-14
  0.1000E+16  0.1430E-14  0.1260E-14  0.1080E-14  0.9410E-15  0.8800E-15  0.8160E-15  0.7860E-15  0.7750E-15  0.7690E-15  0.7620E-15  0.7560E-15  0.7520E-15  0.7490E-15  0.7480E-15
  0.1000E+17  0.1430E-15  0.1260E-15  0.1080E-15  0.9380E-16  0.8790E-16  0.8160E-16  0.7860E-16  0.7750E-16  0.7680E-16  0.7620E-16  0.7560E-16  0.7520E-16  0.7490E-16  0.7480E-16
WAVELENGTH(A)= 
  1955.570
 7 14 t 
excit   
     8.340     12.500     20.900     41.700     83.400    209.000    417.000    626.000    834.000   1250.000   2090.000   4170.000   8340.000  12500.000 
  0.1000E+11  0.1800E-14  0.2420E-14  0.4570E-14  0.3060E-12  0.3860E-11  0.1260E-10  0.1500E-10  0.1530E-10  0.1530E-10  0.1510E-10  0.1470E-10  0.1410E-10  0.1340E-10  0.1300E-10
  0.1000E+12  0.1230E-13  0.1550E-13  0.1890E-13  0.5440E-12  0.7430E-11  0.1770E-10  0.1850E-10  0.1790E-10  0.1730E-10  0.1650E-10  0.1530E-10  0.1370E-10  0.1200E-10  0.1100E-10
  0.1000E+13  0.8850E-13  0.1040E-12  0.1080E-12  0.9550E-12  0.4080E-11  0.4040E-11  0.3800E-11  0.3710E-11  0.3670E-11  0.3630E-11  0.3590E-11  0.3560E-11  0.3530E-11  0.3510E-11
  0.1000E+14  0.2390E-12  0.2530E-12  0.2410E-12  0.3740E-12  0.3930E-12  0.3630E-12  0.3500E-12  0.3450E-12  0.3420E-12  0.3400E-12  0.3380E-12  0.3360E-12  0.3360E-12  0.3360E-12
  0.1000E+15  0.5520E-13  0.5000E-13  0.4330E-13  0.3900E-13  0.3740E-13  0.3560E-13  0.3450E-13  0.3410E-13  0.3380E-13  0.3360E-13  0.3330E-13  0.3320E-13  0.3300E-13  0.3300E-13
  0.1000E+16  0.5950E-14  0.5240E-14  0.4480E-14  0.3880E-14  0.3720E-14  0.3550E-14  0.3440E-14  0.3400E-14  0.3380E-14  0.3350E-14  0.3330E-14  0.3310E-14  0.3300E-14  0.3290E-14
  0.1000E+17  0.5990E-15  0.5270E-15  0.4490E-15  0.3880E-15  0.3720E-15  0.3550E-15  0.3440E-15  0.3400E-15  0.3380E-15  0.3350E-15  0.3330E-15  0.3310E-15  0.3300E-15  0.3290E-15
WAVELENGTH(A)= 
  2063.090
 7 14 t 
excit   
     8.340     12.500     20.900     41.700     83.400    209.000    417.000    626.000    834.000   1250.000   2090.000   4170.000   8340.000  12500.000 
  0.1000E+11  0.9120E-14  0.1120E-13  0.1430E-13  0.4740E-12  0.5170E-11  0.1510E-10  0.1760E-10  0.1780E-10  0.1770E-10  0.1750E-10  0.1710E-10  0.1640E-10  0.1560E-10  0.1520E-10
  0.1000E+12  0.3770E-13  0.4540E-13  0.5090E-13  0.9490E-12  0.9520E-11  0.2080E-10  0.2150E-10  0.2080E-10  0.2010E-10  0.1910E-10  0.1770E-10  0.1570E-10  0.1370E-10  0.1260E-10
  0.1000E+13  0.2020E-12  0.2300E-12  0.2300E-12  0.1590E-11  0.5090E-11  0.4730E-11  0.4420E-11  0.4310E-11  0.4250E-11  0.4200E-11  0.4160E-11  0.4120E-11  0.4090E-11  0.4070E-11
  0.1000E+14  0.3500E-12  0.3640E-12  0.3400E-12  0.4910E-12  0.4660E-12  0.4210E-12  0.4040E-12  0.3980E-12  0.3950E-12  0.3920E-12  0.3890E-12  0.3870E-12  0.3870E-12  0.3870E-12
  0.1000E+15  0.6870E-13  0.6130E-13  0.5260E-13  0.4680E-13  0.4390E-13  0.4110E-13  0.3980E-13  0.3920E-13  0.3890E-13  0.3860E-13  0.3830E-13  0.3810E-13  0.3800E-13  0.3790E-13
  0.1000E+16  0.7260E-14  0.6310E-14  0.5330E-14  0.4600E-14  0.4360E-14  0.4100E-14  0.3970E-14  0.3920E-14  0.3890E-14  0.3860E-14  0.3830E-14  0.3800E-14  0.3790E-14  0.3790E-14
  0.1000E+17  0.7290E-15  0.6320E-15  0.5340E-15  0.4590E-15  0.4350E-15  0.4100E-15  0.3970E-15  0.3920E-15  0.3890E-15  0.3860E-15  0.3830E-15  0.3800E-15  0.3790E-15  0.3780E-15
WAVELENGTH(A)= 
  2219.360
 7 14 t 
excit   
     8.340     12.500     20.900     41.700     83.400    209.000    417.000    626.000    834.000   1250.000   2090.000   4170.000   8340.000  12500.000 
  0.1000E+11  0.3050E-13  0.3370E-13  0.3340E-13  0.3510E-12  0.3070E-11  0.7100E-11  0.7710E-11  0.7700E-11  0.7650E-11  0.7570E-11  0.7480E-11  0.7380E-11  0.7290E-11  0.7230E-11
  0.1000E+12  0.4250E-13  0.4730E-13  0.4660E-13  0.4470E-12  0.3300E-11  0.5220E-11  0.4910E-11  0.4660E-11  0.4490E-11  0.4270E-11  0.4010E-11  0.3690E-11  0.3380E-11  0.3190E-11
  0.1000E+13  0.8800E-13  0.9520E-13  0.8970E-13  0.4340E-12  0.9470E-12  0.6800E-12  0.6040E-12  0.5830E-12  0.5750E-12  0.5670E-12  0.5650E-12  0.5680E-12  0.5760E-12  0.5820E-12
  0.1000E+14  0.7150E-13  0.7050E-13  0.6300E-13  0.7840E-13  0.6050E-13  0.5050E-13  0.4790E-13  0.4700E-13  0.4650E-13  0.4610E-13  0.4580E-13  0.4560E-13  0.4570E-13  0.4580E-13
  0.1000E+15  0.1040E-13  0.8690E-14  0.7050E-14  0.5960E-14  0.5320E-14  0.4830E-14  0.4630E-14  0.4550E-14  0.4510E-14  0.4470E-14  0.4430E-14  0.4400E-14  0.4390E-14  0.4380E-14
  0.1000E+16  0.1050E-14  0.8530E-15  0.6800E-15  0.5680E-15  0.5240E-15  0.4800E-15  0.4610E-15  0.4540E-15  0.4500E-15  0.4450E-15  0.4420E-15  0.4390E-15  0.4370E-15  0.4360E-15
  0.1000E+17  0.1050E-15  0.8500E-16  0.6770E-16  0.5650E-16  0.5230E-16  0.4800E-16  0.4610E-16  0.4530E-16  0.4490E-16  0.4450E-16  0.4420E-16  0.4380E-16  0.4370E-16  0.4360E-16
WAVELENGTH(A)= 
  2235.890
 7 14 t 
excit   
     8.340     12.500     20.900     41.700     83.400    209.000    417.000    626.000    834.000   1250.000   2090.000   4170.000   8340.000  12500.000 
  0.1000E+11  0.9600E-15  0.1230E-14  0.1770E-14  0.7390E-13  0.7320E-12  0.1920E-11  0.2190E-11  0.2210E-11  0.2200E-11  0.2180E-11  0.2140E-11  0.2070E-11  0.2000E-11  0.1960E-11
  0.1000E+12  0.2820E-14  0.3550E-14  0.4290E-14  0.1020E-12  0.1110E-11  0.2690E-11  0.2870E-11  0.2790E-11  0.2700E-11  0.2560E-11  0.2360E-11  0.2080E-11  0.1790E-11  0.1620E-11
  0.1000E+13  0.1890E-13  0.2320E-13  0.2480E-13  0.1950E-12  0.7530E-12  0.7320E-12  0.6850E-12  0.6680E-12  0.6600E-12  0.6520E-12  0.6450E-12  0.6380E-12  0.6330E-12  0.6280E-12
  0.1000E+14  0.4700E-13  0.5180E-13  0.5070E-13  0.7620E-13  0.7290E-13  0.6520E-13  0.6260E-13  0.6160E-13  0.6110E-13  0.6060E-13  0.6020E-13  0.5990E-13  0.5990E-13  0.6000E-13
  0.1000E+15  0.9710E-14  0.9050E-14  0.8030E-14  0.7310E-14  0.6840E-14  0.6370E-14  0.6150E-14  0.6060E-14  0.6020E-14  0.5970E-14  0.5920E-14  0.5890E-14  0.5870E-14  0.5870E-14
  0.1000E+16  0.1030E-14  0.9320E-15  0.8140E-15  0.7190E-15  0.6790E-15  0.6350E-15  0.6140E-15  0.6050E-15  0.6010E-15  0.5960E-15  0.5910E-15  0.5880E-15  0.5860E-15  0.5850E-15
  0.1000E+17  0.1030E-15  0.9340E-16  0.8140E-16  0.7170E-16  0.6780E-16  0.6350E-16  0.6130E-16  0.6050E-16  0.6000E-16  0.5960E-16  0.5910E-16  0.5880E-16  0.5860E-16  0.5850E-16
WAVELENGTH(A)= 
  2281.700
 7 14 t 
excit   
     8.340     12.500     20.900     41.700     83.400    209.000    417.000    626.000    834.000   1250.000   2090.000   4170.000   8340.000  12500.000 
  0.1000E+11  0.2520E-14  0.3240E-14  0.4640E-14  0.1850E-12  0.1780E-11  0.4410E-11  0.4930E-11  0.4940E-11  0.4910E-11  0.4830E-11  0.4720E-11  0.4560E-11  0.4400E-11  0.4300E-11
  0.1000E+12  0.1570E-13  0.1920E-13  0.2170E-13  0.3850E-12  0.2870E-11  0.5490E-11  0.5590E-11  0.5380E-11  0.5190E-11  0.4910E-11  0.4540E-11  0.4020E-11  0.3510E-11  0.3210E-11
  0.1000E+13  0.7340E-13  0.8530E-13  0.8650E-13  0.5600E-12  0.1440E-11  0.1250E-11  0.1160E-11  0.1130E-11  0.1120E-11  0.1100E-11  0.1090E-11  0.1080E-11  0.1070E-11  0.1070E-11
  0.1000E+14  0.9540E-13  0.1030E-12  0.9930E-13  0.1410E-12  0.1240E-12  0.1090E-12  0.1050E-12  0.1030E-12  0.1020E-12  0.1010E-12  0.1010E-12  0.1000E-12  0.1000E-12  0.1000E-12
  0.1000E+15  0.1670E-13  0.1540E-13  0.1360E-13  0.1240E-13  0.1150E-13  0.1070E-13  0.1030E-13  0.1010E-13  0.1010E-13  0.9980E-14  0.9910E-14  0.9850E-14  0.9820E-14  0.9810E-14
  0.1000E+16  0.1730E-14  0.1560E-14  0.1360E-14  0.1200E-14  0.1140E-14  0.1060E-14  0.1030E-14  0.1010E-14  0.1000E-14  0.9960E-15  0.9890E-15  0.9830E-15  0.9800E-15  0.9780E-15
  0.1000E+17  0.1740E-15  0.1560E-15  0.1360E-15  0.1200E-15  0.1130E-15  0.1060E-15  0.1030E-15  0.1010E-15  0.1000E-15  0.9960E-16  0.9890E-16  0.9830E-16  0.9790E-16  0.9780E-16
WAVELENGTH(A)= 
  2425.480
 7 14 t 
excit   
     8.340     12.500     20.900     41.700     83.400    209.000    417.000    626.000    834.000   1250.000   2090.000   4170.000   8340.000  12500.000 
  0.1000E+11  0.6320E-16  0.1050E-15  0.3270E-15  0.3360E-13  0.5050E-12  0.1900E-11  0.2350E-11  0.2410E-11  0.2420E-11  0.2390E-11  0.2330E-11  0.2220E-11  0.2080E-11  0.2000E-11
  0.1000E+12  0.4990E-15  0.7450E-15  0.1150E-14  0.6000E-13  0.1230E-11  0.3840E-11  0.4350E-11  0.4290E-11  0.4170E-11  0.3960E-11  0.3630E-11  0.3140E-11  0.2650E-11  0.2380E-11
  0.1000E+13  0.9950E-14  0.1390E-13  0.1640E-13  0.1880E-12  0.1210E-11  0.1540E-11  0.1520E-11  0.1510E-11  0.1490E-11  0.1470E-11  0.1450E-11  0.1420E-11  0.1380E-11  0.1350E-11
  0.1000E+14  0.5250E-13  0.6760E-13  0.7500E-13  0.1350E-12  0.1650E-12  0.1640E-12  0.1600E-12  0.1590E-12  0.1580E-12  0.1570E-12  0.1560E-12  0.1560E-12  0.1550E-12  0.1550E-12
  0.1000E+15  0.1440E-13  0.1600E-13  0.1630E-13  0.1650E-13  0.1660E-13  0.1640E-13  0.1610E-13  0.1590E-13  0.1580E-13  0.1580E-13  0.1570E-13  0.1560E-13  0.1560E-13  0.1560E-13
  0.1000E+16  0.1580E-14  0.1710E-14  0.1720E-14  0.1670E-14  0.1660E-14  0.1640E-14  0.1610E-14  0.1590E-14  0.1580E-14  0.1580E-14  0.1570E-14  0.1560E-14  0.1560E-14  0.1560E-14
  0.1000E+17  0.1600E-15  0.1720E-15  0.1730E-15  0.1670E-15  0.1660E-15  0.1640E-15  0.1610E-15  0.1590E-15  0.1580E-15  0.1580E-15  0.1570E-15  0.1560E-15  0.1560E-15  0.1560E-15
WAVELENGTH(A)= 
  2467.550
 7 14 t 
excit   
     8.340     12.500     20.900     41.700     83.400    209.000    417.000    626.000    834.000   1250.000   2090.000   4170.000   8340.000  12500.000 
  0.1000E+11  0.2200E-14  0.2790E-14  0.4350E-14  0.2350E-12  0.3260E-11  0.1050E-10  0.1220E-10  0.1230E-10  0.1230E-10  0.1220E-10  0.1200E-10  0.1170E-10  0.1130E-10  0.1110E-10
  0.1000E+12  0.9230E-14  0.1090E-13  0.1250E-13  0.3370E-12  0.4370E-11  0.8250E-11  0.8060E-11  0.7730E-11  0.7490E-11  0.7160E-11  0.6760E-11  0.6230E-11  0.5710E-11  0.5410E-11
  0.1000E+13  0.3470E-13  0.3660E-13  0.3460E-13  0.3000E-12  0.1320E-11  0.1270E-11  0.1180E-11  0.1160E-11  0.1140E-11  0.1130E-11  0.1120E-11  0.1120E-11  0.1130E-11  0.1130E-11
  0.1000E+14  0.7780E-13  0.7710E-13  0.6940E-13  0.1060E-12  0.1160E-12  0.1070E-12  0.1030E-12  0.1020E-12  0.1010E-12  0.1000E-12  0.9980E-13  0.9940E-13  0.9950E-13  0.9960E-13
  0.1000E+15  0.1840E-13  0.1580E-13  0.1310E-13  0.1140E-13  0.1090E-13  0.1040E-13  0.1010E-13  0.9980E-14  0.9920E-14  0.9850E-14  0.9780E-14  0.9720E-14  0.9690E-14  0.9680E-14
  0.1000E+16  0.1990E-14  0.1660E-14  0.1360E-14  0.1140E-14  0.1080E-14  0.1040E-14  0.1010E-14  0.9960E-15  0.9900E-15  0.9830E-15  0.9760E-15  0.9700E-15  0.9660E-15  0.9650E-15
  0.1000E+17  0.2000E-15  0.1670E-15  0.1370E-15  0.1140E-15  0.1080E-15  0.1040E-15  0.1010E-15  0.9960E-16  0.9900E-16  0.9830E-16  0.9760E-16  0.9700E-16  0.9660E-16  0.9650E-16
WAVELENGTH(A)= 
  2530.680
 7 14 t 
excit   
     8.340     12.500     20.900     41.700     83.400    209.000    417.000    626.000    834.000   1250.000   2090.000   4170.000   8340.000  12500.000 
  0.1000E+11  0.6660E-14  0.8090E-14  0.1010E-13  0.2970E-12  0.2740E-11  0.6530E-11  0.7240E-11  0.7260E-11  0.7220E-11  0.7140E-11  0.7030E-11  0.6890E-11  0.6740E-11  0.6660E-11
  0.1000E+12  0.1620E-13  0.1940E-13  0.2180E-13  0.3840E-12  0.3410E-11  0.6840E-11  0.6920E-11  0.6660E-11  0.6440E-11  0.6110E-11  0.5670E-11  0.5080E-11  0.4480E-11  0.4130E-11
  0.1000E+13  0.7450E-13  0.8680E-13  0.8790E-13  0.5530E-12  0.1630E-11  0.1400E-11  0.1290E-11  0.1250E-11  0.1230E-11  0.1220E-11  0.1210E-11  0.1200E-11  0.1200E-11  0.1200E-11
  0.1000E+14  0.1090E-12  0.1160E-12  0.1100E-12  0.1540E-12  0.1350E-12  0.1170E-12  0.1120E-12  0.1100E-12  0.1090E-12  0.1080E-12  0.1070E-12  0.1070E-12  0.1070E-12  0.1070E-12
  0.1000E+15  0.1910E-13  0.1730E-13  0.1510E-13  0.1340E-13  0.1230E-13  0.1140E-13  0.1090E-13  0.1080E-13  0.1070E-13  0.1060E-13  0.1050E-13  0.1050E-13  0.1040E-13  0.1040E-13
  0.1000E+16  0.1980E-14  0.1750E-14  0.1500E-14  0.1300E-14  0.1220E-14  0.1130E-14  0.1090E-14  0.1070E-14  0.1070E-14  0.1060E-14  0.1050E-14  0.1040E-14  0.1040E-14  0.1040E-14
  0.1000E+17  0.1990E-15  0.1750E-15  0.1490E-15  0.1300E-15  0.1220E-15  0.1130E-15  0.1090E-15  0.1070E-15  0.1070E-15  0.1060E-15  0.1050E-15  0.1040E-15  0.1040E-15  0.1040E-15
WAVELENGTH(A)= 
  2889.670
 7 14 t 
excit   
     8.340     12.500     20.900     41.700     83.400    209.000    417.000    626.000    834.000   1250.000   2090.000   4170.000   8340.000  12500.000 
  0.1000E+11  0.1380E-15  0.2060E-15  0.4700E-15  0.3740E-13  0.5080E-12  0.1810E-11  0.2230E-11  0.2280E-11  0.2290E-11  0.2260E-11  0.2200E-11  0.2090E-11  0.1960E-11  0.1880E-11
  0.1000E+12  0.7230E-15  0.1020E-14  0.1460E-14  0.6340E-13  0.1210E-11  0.3880E-11  0.4420E-11  0.4370E-11  0.4250E-11  0.4030E-11  0.3680E-11  0.3180E-11  0.2670E-11  0.2380E-11
  0.1000E+13  0.1130E-13  0.1540E-13  0.1780E-13  0.1980E-12  0.1270E-11  0.1590E-11  0.1560E-11  0.1540E-11  0.1520E-11  0.1500E-11  0.1480E-11  0.1450E-11  0.1410E-11  0.1390E-11
  0.1000E+14  0.6100E-13  0.7560E-13  0.8130E-13  0.1430E-12  0.1700E-12  0.1650E-12  0.1610E-12  0.1590E-12  0.1580E-12  0.1570E-12  0.1560E-12  0.1560E-12  0.1550E-12  0.1550E-12
  0.1000E+15  0.1670E-13  0.1770E-13  0.1740E-13  0.1710E-13  0.1690E-13  0.1640E-13  0.1600E-13  0.1590E-13  0.1580E-13  0.1570E-13  0.1560E-13  0.1550E-13  0.1550E-13  0.1550E-13
  0.1000E+16  0.1830E-14  0.1890E-14  0.1840E-14  0.1730E-14  0.1690E-14  0.1640E-14  0.1600E-14  0.1590E-14  0.1580E-14  0.1570E-14  0.1560E-14  0.1550E-14  0.1550E-14  0.1550E-14
  0.1000E+17  0.1850E-15  0.1910E-15  0.1850E-15  0.1730E-15  0.1690E-15  0.1640E-15  0.1600E-15  0.1590E-15  0.1580E-15  0.1570E-15  0.1560E-15  0.1550E-15  0.1550E-15  0.1550E-15
WAVELENGTH(A)= 
  2956.130
 7 14 t 
excit   
     8.340     12.500     20.900     41.700     83.400    209.000    417.000    626.000    834.000   1250.000   2090.000   4170.000   8340.000  12500.000 
  0.1000E+11  0.7960E-13  0.8820E-13  0.8740E-13  0.9170E-12  0.8030E-11  0.1850E-10  0.2020E-10  0.2010E-10  0.2000E-10  0.1980E-10  0.1950E-10  0.1930E-10  0.1900E-10  0.1890E-10
  0.1000E+12  0.1110E-12  0.1230E-12  0.1220E-12  0.1170E-11  0.8620E-11  0.1360E-10  0.1280E-10  0.1220E-10  0.1170E-10  0.1120E-10  0.1050E-10  0.9640E-11  0.8820E-11  0.8350E-11
  0.1000E+13  0.2300E-12  0.2490E-12  0.2340E-12  0.1130E-11  0.2470E-11  0.1780E-11  0.1580E-11  0.1520E-11  0.1500E-11  0.1480E-11  0.1480E-11  0.1480E-11  0.1510E-11  0.1520E-11
  0.1000E+14  0.1870E-12  0.1840E-12  0.1650E-12  0.2050E-12  0.1580E-12  0.1320E-12  0.1250E-12  0.1230E-12  0.1220E-12  0.1200E-12  0.1200E-12  0.1190E-12  0.1190E-12  0.1200E-12
  0.1000E+15  0.2730E-13  0.2270E-13  0.1840E-13  0.1560E-13  0.1390E-13  0.1260E-13  0.1210E-13  0.1190E-13  0.1180E-13  0.1170E-13  0.1160E-13  0.1150E-13  0.1150E-13  0.1150E-13
  0.1000E+16  0.2750E-14  0.2230E-14  0.1780E-14  0.1480E-14  0.1370E-14  0.1260E-14  0.1200E-14  0.1190E-14  0.1170E-14  0.1160E-14  0.1150E-14  0.1150E-14  0.1140E-14  0.1140E-14
  0.1000E+17  0.2750E-15  0.2220E-15  0.1770E-15  0.1480E-15  0.1370E-15  0.1250E-15  0.1200E-15  0.1180E-15  0.1170E-15  0.1160E-15  0.1150E-15  0.1150E-15  0.1140E-15  0.1140E-15
WAVELENGTH(A)= 
  3017.500
 7 14 t 
excit   
     8.340     12.500     20.900     41.700     83.400    209.000    417.000    626.000    834.000   1250.000   2090.000   4170.000   8340.000  12500.000 
  0.1000E+11  0.8120E-16  0.1270E-15  0.3650E-15  0.3590E-13  0.5760E-12  0.2230E-11  0.2770E-11  0.2840E-11  0.2840E-11  0.2810E-11  0.2730E-11  0.2590E-11  0.2420E-11  0.2320E-11
  0.1000E+12  0.8800E-15  0.1230E-14  0.1730E-14  0.7590E-13  0.1470E-11  0.4040E-11  0.4380E-11  0.4280E-11  0.4150E-11  0.3940E-11  0.3640E-11  0.3200E-11  0.2750E-11  0.2500E-11
  0.1000E+13  0.1330E-13  0.1680E-13  0.1850E-13  0.1920E-12  0.1060E-11  0.1210E-11  0.1170E-11  0.1150E-11  0.1140E-11  0.1130E-11  0.1110E-11  0.1100E-11  0.1070E-11  0.1060E-11
  0.1000E+14  0.5210E-13  0.6100E-13  0.6290E-13  0.1060E-12  0.1230E-12  0.1190E-12  0.1160E-12  0.1150E-12  0.1140E-12  0.1140E-12  0.1130E-12  0.1120E-12  0.1120E-12  0.1120E-12
  0.1000E+15  0.1340E-13  0.1360E-13  0.1290E-13  0.1230E-13  0.1210E-13  0.1180E-13  0.1160E-13  0.1140E-13  0.1140E-13  0.1130E-13  0.1120E-13  0.1120E-13  0.1120E-13  0.1120E-13
  0.1000E+16  0.1470E-14  0.1450E-14  0.1350E-14  0.1240E-14  0.1210E-14  0.1180E-14  0.1150E-14  0.1140E-14  0.1140E-14  0.1130E-14  0.1120E-14  0.1120E-14  0.1120E-14  0.1110E-14
  0.1000E+17  0.1480E-15  0.1460E-15  0.1360E-15  0.1240E-15  0.1210E-15  0.1180E-15  0.1150E-15  0.1140E-15  0.1140E-15  0.1130E-15  0.1120E-15  0.1120E-15  0.1120E-15  0.1110E-15
WAVELENGTH(A)= 
  3030.490
 7 14 t 
excit   
     8.340     12.500     20.900     41.700     83.400    209.000    417.000    626.000    834.000   1250.000   2090.000   4170.000   8340.000  12500.000 
  0.1000E+11  0.3600E-15  0.4920E-15  0.9050E-15  0.5680E-13  0.6200E-12  0.1770E-11  0.2050E-11  0.2080E-11  0.2070E-11  0.2050E-11  0.2000E-11  0.1940E-11  0.1860E-11  0.1810E-11
  0.1000E+12  0.2480E-14  0.3130E-14  0.3770E-14  0.9330E-13  0.1030E-11  0.2390E-11  0.2510E-11  0.2440E-11  0.2370E-11  0.2240E-11  0.2080E-11  0.1840E-11  0.1590E-11  0.1460E-11
  0.1000E+13  0.1530E-13  0.1820E-13  0.1890E-13  0.1530E-12  0.6150E-12  0.6330E-12  0.6020E-12  0.5900E-12  0.5830E-12  0.5760E-12  0.5690E-12  0.5620E-12  0.5550E-12  0.5490E-12
  0.1000E+14  0.3400E-13  0.3820E-13  0.3810E-13  0.6060E-13  0.6390E-13  0.5940E-13  0.5740E-13  0.5660E-13  0.5620E-13  0.5580E-13  0.5550E-13  0.5520E-13  0.5510E-13  0.5510E-13
  0.1000E+15  0.7590E-14  0.7410E-14  0.6830E-14  0.6400E-14  0.6150E-14  0.5840E-14  0.5670E-14  0.5610E-14  0.5570E-14  0.5530E-14  0.5490E-14  0.5460E-14  0.5450E-14  0.5440E-14
  0.1000E+16  0.8160E-15  0.7770E-15  0.7060E-15  0.6380E-15  0.6120E-15  0.5830E-15  0.5670E-15  0.5600E-15  0.5560E-15  0.5520E-15  0.5490E-15  0.5460E-15  0.5440E-15  0.5440E-15
  0.1000E+17  0.8220E-16  0.7800E-16  0.7080E-16  0.6380E-16  0.6120E-16  0.5830E-16  0.5660E-16  0.5600E-16  0.5560E-16  0.5520E-16  0.5490E-16  0.5460E-16  0.5440E-16  0.5430E-16
WAVELENGTH(A)= 
  4308.490
 7 14 t 
excit   
     8.340     12.500     20.900     41.700     83.400    209.000    417.000    626.000    834.000   1250.000   2090.000   4170.000   8340.000  12500.000 
  0.1000E+11  0.8710E-12  0.8680E-12  0.7450E-12  0.1410E-11  0.7940E-11  0.1730E-10  0.1860E-10  0.1850E-10  0.1840E-10  0.1820E-10  0.1800E-10  0.1770E-10  0.1760E-10  0.1740E-10
  0.1000E+12  0.8490E-12  0.8360E-12  0.7070E-12  0.1520E-11  0.8230E-11  0.1290E-10  0.1210E-10  0.1140E-10  0.1100E-10  0.1050E-10  0.9840E-11  0.9040E-11  0.8260E-11  0.7800E-11
  0.1000E+13  0.7270E-12  0.7100E-12  0.6000E-12  0.1350E-11  0.2380E-11  0.1550E-11  0.1350E-11  0.1290E-11  0.1270E-11  0.1250E-11  0.1250E-11  0.1260E-11  0.1290E-11  0.1310E-11
  0.1000E+14  0.2890E-12  0.2590E-12  0.2140E-12  0.2050E-12  0.1340E-12  0.1070E-12  0.1000E-12  0.9790E-13  0.9690E-13  0.9580E-13  0.9510E-13  0.9480E-13  0.9510E-13  0.9540E-13
  0.1000E+15  0.3100E-13  0.2330E-13  0.1740E-13  0.1350E-13  0.1140E-13  0.1010E-13  0.9600E-14  0.9420E-14  0.9320E-14  0.9220E-14  0.9140E-14  0.9070E-14  0.9030E-14  0.9020E-14
  0.1000E+16  0.2980E-14  0.2160E-14  0.1580E-14  0.1250E-14  0.1120E-14  0.1000E-14  0.9560E-15  0.9380E-15  0.9290E-15  0.9190E-15  0.9100E-15  0.9030E-15  0.8980E-15  0.8970E-15
  0.1000E+17  0.2960E-15  0.2150E-15  0.1570E-15  0.1240E-15  0.1120E-15  0.1000E-15  0.9560E-16  0.9380E-16  0.9280E-16  0.9180E-16  0.9100E-16  0.9020E-16  0.8980E-16  0.8960E-16
WAVELENGTH(A)= 
  4398.120
 7 14 t 
excit   
     8.340     12.500     20.900     41.700     83.400    209.000    417.000    626.000    834.000   1250.000   2090.000   4170.000   8340.000  12500.000 
  0.1000E+11  0.1470E-14  0.1870E-14  0.2770E-14  0.1250E-12  0.1210E-11  0.3060E-11  0.3450E-11  0.3480E-11  0.3460E-11  0.3420E-11  0.3360E-11  0.3270E-11  0.3180E-11  0.3120E-11
  0.1000E+12  0.5180E-14  0.6400E-14  0.7620E-14  0.1780E-12  0.1720E-11  0.3830E-11  0.4000E-11  0.3870E-11  0.3750E-11  0.3560E-11  0.3290E-11  0.2910E-11  0.2520E-11  0.2310E-11
  0.1000E+13  0.3160E-13  0.3750E-13  0.3900E-13  0.2930E-12  0.1020E-11  0.9690E-12  0.9060E-12  0.8840E-12  0.8730E-12  0.8620E-12  0.8530E-12  0.8440E-12  0.8370E-12  0.8310E-12
  0.1000E+14  0.6410E-13  0.6980E-13  0.6780E-13  0.1010E-12  0.9660E-13  0.8650E-13  0.8300E-13  0.8170E-13  0.8100E-13  0.8030E-13  0.7980E-13  0.7950E-13  0.7940E-13  0.7950E-13
  0.1000E+15  0.1300E-13  0.1210E-13  0.1070E-13  0.9720E-14  0.9080E-14  0.8450E-14  0.8160E-14  0.8040E-14  0.7980E-14  0.7920E-14  0.7860E-14  0.7820E-14  0.7790E-14  0.7790E-14
  0.1000E+16  0.1370E-14  0.1240E-14  0.1080E-14  0.9560E-15  0.9010E-15  0.8430E-15  0.8140E-15  0.8030E-15  0.7970E-15  0.7900E-15  0.7850E-15  0.7800E-15  0.7780E-15  0.7770E-15
  0.1000E+17  0.1380E-15  0.1240E-15  0.1080E-15  0.9540E-16  0.9000E-16  0.8430E-16  0.8140E-16  0.8030E-16  0.7970E-16  0.7900E-16  0.7850E-16  0.7800E-16  0.7780E-16  0.7770E-16
WAVELENGTH(A)= 
  4549.800
 7 14 t 
excit   
     8.340     12.500     20.900     41.700     83.400    209.000    417.000    626.000    834.000   1250.000   2090.000   4170.000   8340.000  12500.000 
  0.1000E+11  0.1890E-14  0.2440E-14  0.3490E-14  0.1390E-12  0.1340E-11  0.3320E-11  0.3710E-11  0.3720E-11  0.3690E-11  0.3640E-11  0.3550E-11  0.3430E-11  0.3310E-11  0.3240E-11
  0.1000E+12  0.1180E-13  0.1440E-13  0.1640E-13  0.2900E-12  0.2160E-11  0.4130E-11  0.4200E-11  0.4050E-11  0.3910E-11  0.3700E-11  0.3420E-11  0.3030E-11  0.2640E-11  0.2420E-11
  0.1000E+13  0.5520E-13  0.6420E-13  0.6510E-13  0.4210E-12  0.1080E-11  0.9440E-12  0.8740E-12  0.8520E-12  0.8410E-12  0.8300E-12  0.8210E-12  0.8140E-12  0.8090E-12  0.8050E-12
  0.1000E+14  0.7180E-13  0.7750E-13  0.7470E-13  0.1060E-12  0.9300E-13  0.8220E-13  0.7880E-13  0.7760E-13  0.7690E-13  0.7630E-13  0.7580E-13  0.7550E-13  0.7540E-13  0.7550E-13
  0.1000E+15  0.1250E-13  0.1160E-13  0.1030E-13  0.9290E-14  0.8620E-14  0.8010E-14  0.7740E-14  0.7630E-14  0.7570E-14  0.7510E-14  0.7460E-14  0.7410E-14  0.7390E-14  0.7380E-14
  0.1000E+16  0.1300E-14  0.1170E-14  0.1020E-14  0.9040E-15  0.8540E-15  0.7990E-15  0.7720E-15  0.7610E-15  0.7560E-15  0.7490E-15  0.7440E-15  0.7400E-15  0.7370E-15  0.7360E-15
  0.1000E+17  0.1310E-15  0.1170E-15  0.1020E-15  0.9010E-16  0.8540E-16  0.7990E-16  0.7720E-16  0.7610E-16  0.7560E-16  0.7490E-16  0.7440E-16  0.7400E-16  0.7370E-16  0.7360E-16
WAVELENGTH(A)= 
  4577.080
 7 14 t 
excit   
     8.340     12.500     20.900     41.700     83.400    209.000    417.000    626.000    834.000   1250.000   2090.000   4170.000   8340.000  12500.000 
  0.1000E+11  0.5690E-13  0.6300E-13  0.6240E-13  0.6550E-12  0.5740E-11  0.1330E-10  0.1440E-10  0.1440E-10  0.1430E-10  0.1410E-10  0.1400E-10  0.1380E-10  0.1360E-10  0.1350E-10
  0.1000E+12  0.7950E-13  0.8830E-13  0.8710E-13  0.8350E-12  0.6160E-11  0.9740E-11  0.9170E-11  0.8700E-11  0.8380E-11  0.7970E-11  0.7490E-11  0.6890E-11  0.6300E-11  0.5970E-11
  0.1000E+13  0.1640E-12  0.1780E-12  0.1680E-12  0.8110E-12  0.1770E-11  0.1270E-11  0.1130E-11  0.1090E-11  0.1070E-11  0.1060E-11  0.1050E-11  0.1060E-11  0.1080E-11  0.1090E-11
  0.1000E+14  0.1340E-12  0.1320E-12  0.1180E-12  0.1460E-12  0.1130E-12  0.9440E-13  0.8940E-13  0.8770E-13  0.8690E-13  0.8600E-13  0.8540E-13  0.8520E-13  0.8530E-13  0.8560E-13
  0.1000E+15  0.1950E-13  0.1620E-13  0.1320E-13  0.1110E-13  0.9930E-14  0.9020E-14  0.8640E-14  0.8500E-14  0.8420E-14  0.8340E-14  0.8280E-14  0.8220E-14  0.8190E-14  0.8180E-14
  0.1000E+16  0.1970E-14  0.1590E-14  0.1270E-14  0.1060E-14  0.9790E-15  0.8970E-15  0.8610E-15  0.8470E-15  0.8400E-15  0.8320E-15  0.8250E-15  0.8190E-15  0.8160E-15  0.8140E-15
  0.1000E+17  0.1970E-15  0.1590E-15  0.1260E-15  0.1060E-15  0.9770E-16  0.8970E-16  0.8610E-16  0.8470E-16  0.8390E-16  0.8310E-16  0.8250E-16  0.8190E-16  0.8150E-16  0.8140E-16
WAVELENGTH(A)= 
  5127.150
 7 14 t 
excit   
     8.340     12.500     20.900     41.700     83.400    209.000    417.000    626.000    834.000   1250.000   2090.000   4170.000   8340.000  12500.000 
  0.1000E+11  0.4480E-14  0.5490E-14  0.6430E-14  0.1320E-12  0.1140E-11  0.2580E-11  0.2840E-11  0.2840E-11  0.2820E-11  0.2790E-11  0.2740E-11  0.2690E-11  0.2640E-11  0.2610E-11
  0.1000E+12  0.7180E-14  0.8810E-14  0.9960E-14  0.1630E-12  0.1380E-11  0.2940E-11  0.3070E-11  0.2980E-11  0.2880E-11  0.2730E-11  0.2520E-11  0.2230E-11  0.1930E-11  0.1760E-11
  0.1000E+13  0.2600E-13  0.3130E-13  0.3290E-13  0.2350E-12  0.8020E-12  0.7690E-12  0.7190E-12  0.7020E-12  0.6930E-12  0.6830E-12  0.6760E-12  0.6690E-12  0.6620E-12  0.6560E-12
  0.1000E+14  0.5320E-13  0.5760E-13  0.5570E-13  0.8240E-13  0.7800E-13  0.6950E-13  0.6650E-13  0.6540E-13  0.6490E-13  0.6430E-13  0.6390E-13  0.6360E-13  0.6360E-13  0.6360E-13
  0.1000E+15  0.1100E-13  0.1010E-13  0.8820E-14  0.7950E-14  0.7360E-14  0.6800E-14  0.6550E-14  0.6450E-14  0.6400E-14  0.6340E-14  0.6300E-14  0.6260E-14  0.6240E-14  0.6240E-14
  0.1000E+16  0.1170E-14  0.1040E-14  0.8950E-15  0.7820E-15  0.7310E-15  0.6780E-15  0.6540E-15  0.6440E-15  0.6390E-15  0.6330E-15  0.6290E-15  0.6250E-15  0.6230E-15  0.6230E-15
  0.1000E+17  0.1170E-15  0.1040E-15  0.8960E-16  0.7810E-16  0.7300E-16  0.6780E-16  0.6540E-16  0.6440E-16  0.6390E-16  0.6330E-16  0.6290E-16  0.6250E-16  0.6230E-16  0.6220E-16
WAVELENGTH(A)= 
  5660.270
 7 14 t 
excit   
     8.340     12.500     20.900     41.700     83.400    209.000    417.000    626.000    834.000   1250.000   2090.000   4170.000   8340.000  12500.000 
  0.1000E+11  0.6470E-14  0.7860E-14  0.9780E-14  0.2890E-12  0.2660E-11  0.6340E-11  0.7030E-11  0.7050E-11  0.7010E-11  0.6940E-11  0.6830E-11  0.6690E-11  0.6550E-11  0.6470E-11
  0.1000E+12  0.1570E-13  0.1890E-13  0.2110E-13  0.3730E-12  0.3310E-11  0.6640E-11  0.6720E-11  0.6470E-11  0.6250E-11  0.5930E-11  0.5510E-11  0.4930E-11  0.4350E-11  0.4020E-11
  0.1000E+13  0.7240E-13  0.8440E-13  0.8540E-13  0.5370E-12  0.1580E-11  0.1360E-11  0.1250E-11  0.1210E-11  0.1200E-11  0.1180E-11  0.1170E-11  0.1170E-11  0.1170E-11  0.1170E-11
  0.1000E+14  0.1060E-12  0.1130E-12  0.1070E-12  0.1500E-12  0.1310E-12  0.1140E-12  0.1090E-12  0.1070E-12  0.1060E-12  0.1050E-12  0.1040E-12  0.1040E-12  0.1040E-12  0.1040E-12
  0.1000E+15  0.1860E-13  0.1680E-13  0.1460E-13  0.1310E-13  0.1200E-13  0.1100E-13  0.1060E-13  0.1050E-13  0.1040E-13  0.1030E-13  0.1020E-13  0.1020E-13  0.1010E-13  0.1010E-13
  0.1000E+16  0.1920E-14  0.1700E-14  0.1450E-14  0.1270E-14  0.1190E-14  0.1100E-14  0.1060E-14  0.1040E-14  0.1040E-14  0.1030E-14  0.1020E-14  0.1010E-14  0.1010E-14  0.1010E-14
  0.1000E+17  0.1930E-15  0.1700E-15  0.1450E-15  0.1260E-15  0.1180E-15  0.1100E-15  0.1060E-15  0.1040E-15  0.1030E-15  0.1030E-15  0.1020E-15  0.1010E-15  0.1010E-15  0.1010E-15
WAVELENGTH(A)= 
  6373.490
 7 14 t 
excit   
     8.340     12.500     20.900     41.700     83.400    209.000    417.000    626.000    834.000   1250.000   2090.000   4170.000   8340.000  12500.000 
  0.1000E+11  0.4920E-15  0.6720E-15  0.1240E-14  0.7760E-13  0.8470E-12  0.2420E-11  0.2800E-11  0.2840E-11  0.2830E-11  0.2800E-11  0.2740E-11  0.2640E-11  0.2540E-11  0.2470E-11
  0.1000E+12  0.3380E-14  0.4270E-14  0.5150E-14  0.1270E-12  0.1400E-11  0.3260E-11  0.3430E-11  0.3330E-11  0.3230E-11  0.3060E-11  0.2830E-11  0.2510E-11  0.2180E-11  0.1990E-11
  0.1000E+13  0.2080E-13  0.2490E-13  0.2590E-13  0.2080E-12  0.8390E-12  0.8650E-12  0.8220E-12  0.8060E-12  0.7960E-12  0.7870E-12  0.7780E-12  0.7680E-12  0.7580E-12  0.7500E-12
  0.1000E+14  0.4640E-13  0.5220E-13  0.5210E-13  0.8270E-13  0.8730E-13  0.8110E-13  0.7830E-13  0.7730E-13  0.7680E-13  0.7620E-13  0.7580E-13  0.7540E-13  0.7530E-13  0.7530E-13
  0.1000E+15  0.1040E-13  0.1010E-13  0.9330E-14  0.8740E-14  0.8400E-14  0.7980E-14  0.7750E-14  0.7660E-14  0.7600E-14  0.7550E-14  0.7500E-14  0.7460E-14  0.7440E-14  0.7440E-14
  0.1000E+16  0.1110E-14  0.1060E-14  0.9640E-15  0.8720E-15  0.8360E-15  0.7970E-15  0.7740E-15  0.7650E-15  0.7600E-15  0.7540E-15  0.7490E-15  0.7460E-15  0.7430E-15  0.7420E-15
  0.1000E+17  0.1120E-15  0.1070E-15  0.9670E-16  0.8710E-16  0.8350E-16  0.7960E-16  0.7740E-16  0.7650E-16  0.7590E-16  0.7540E-16  0.7490E-16  0.7450E-16  0.7430E-16  0.7420E-16
WAVELENGTH(A)= 
  8904.720
 7 14 t 
excit   
     8.340     12.500     20.900     41.700     83.400    209.000    417.000    626.000    834.000   1250.000   2090.000   4170.000   8340.000  12500.000 
  0.1000E+11  0.7870E-13  0.8130E-13  0.8010E-13  0.1210E-11  0.8530E-11  0.1250E-10  0.1150E-10  0.1110E-10  0.1100E-10  0.1090E-10  0.1110E-10  0.1170E-10  0.1260E-10  0.1310E-10
  0.1000E+12  0.6770E-13  0.6670E-13  0.6180E-13  0.7100E-12  0.2780E-11  0.2360E-11  0.1910E-11  0.1760E-11  0.1690E-11  0.1610E-11  0.1550E-11  0.1510E-11  0.1490E-11  0.1490E-11
  0.1000E+13  0.4590E-13  0.4260E-13  0.3610E-13  0.1810E-12  0.2550E-12  0.1440E-12  0.1230E-12  0.1180E-12  0.1150E-12  0.1140E-12  0.1140E-12  0.1160E-12  0.1190E-12  0.1220E-12
  0.1000E+14  0.2210E-13  0.1850E-13  0.1460E-13  0.1700E-13  0.1190E-13  0.9620E-14  0.9020E-14  0.8820E-14  0.8730E-14  0.8630E-14  0.8560E-14  0.8530E-14  0.8540E-14  0.8570E-14
  0.1000E+15  0.3040E-14  0.2140E-14  0.1520E-14  0.1180E-14  0.1020E-14  0.9120E-15  0.8670E-15  0.8510E-15  0.8420E-15  0.8330E-15  0.8250E-15  0.8180E-15  0.8140E-15  0.8130E-15
  0.1000E+16  0.3060E-15  0.2090E-15  0.1460E-15  0.1110E-15  0.1010E-15  0.9070E-16  0.8640E-16  0.8480E-16  0.8390E-16  0.8300E-16  0.8220E-16  0.8150E-16  0.8100E-16  0.8090E-16
  0.1000E+17  0.3060E-16  0.2090E-16  0.1450E-16  0.1110E-16  0.1000E-16  0.9060E-17  0.8630E-17  0.8470E-17  0.8390E-17  0.8300E-17  0.8210E-17  0.8140E-17  0.8100E-17  0.8080E-17
WAVELENGTH(A)= 
  9425.070
 7 14 t 
excit   
     8.340     12.500     20.900     41.700     83.400    209.000    417.000    626.000    834.000   1250.000   2090.000   4170.000   8340.000  12500.000 
  0.1000E+11  0.4840E-15  0.6510E-15  0.1230E-14  0.8220E-13  0.1040E-11  0.3380E-11  0.4040E-11  0.4110E-11  0.4110E-11  0.4060E-11  0.3960E-11  0.3800E-11  0.3610E-11  0.3480E-11
  0.1000E+12  0.3310E-14  0.4150E-14  0.5090E-14  0.1460E-12  0.2000E-11  0.4770E-11  0.4960E-11  0.4810E-11  0.4660E-11  0.4430E-11  0.4110E-11  0.3670E-11  0.3220E-11  0.2960E-11
  0.1000E+13  0.2380E-13  0.2800E-13  0.2900E-13  0.2570E-12  0.1100E-11  0.1090E-11  0.1020E-11  0.9980E-12  0.9860E-12  0.9750E-12  0.9650E-12  0.9570E-12  0.9490E-12  0.9440E-12
  0.1000E+14  0.6420E-13  0.6810E-13  0.6470E-13  0.1010E-12  0.1060E-12  0.9750E-13  0.9410E-13  0.9280E-13  0.9200E-13  0.9130E-13  0.9080E-13  0.9040E-13  0.9020E-13  0.9020E-13
  0.1000E+15  0.1480E-13  0.1340E-13  0.1160E-13  0.1050E-13  0.1010E-13  0.9550E-14  0.9270E-14  0.9150E-14  0.9080E-14  0.9020E-14  0.8960E-14  0.8910E-14  0.8870E-14  0.8860E-14
  0.1000E+16  0.1600E-14  0.1410E-14  0.1200E-14  0.1040E-14  0.9990E-15  0.9530E-15  0.9250E-15  0.9140E-15  0.9070E-15  0.9010E-15  0.8940E-15  0.8900E-15  0.8860E-15  0.8840E-15
  0.1000E+17  0.1610E-15  0.1410E-15  0.1210E-15  0.1040E-15  0.9990E-16  0.9530E-16  0.9250E-16  0.9140E-16  0.9070E-16  0.9000E-16  0.8940E-16  0.8890E-16  0.8860E-16  0.8840E-16
