 50  7 14
WAVELENGTH(A)= 
    55.357
 7 14 t 
excit   
     9.930     14.900     24.800     49.600     99.300    248.000    496.000    744.000    993.000   1490.000   2480.000   4960.000   9930.000  14900.000 
  0.1000E+11  0.1750E-20  0.2620E-17  0.8440E-15  0.5550E-13  0.3920E-12  0.1120E-11  0.1540E-11  0.1690E-11  0.1770E-11  0.1840E-11  0.1850E-11  0.1780E-11  0.1620E-11  0.1500E-11
  0.1000E+12  0.1560E-20  0.2310E-17  0.7320E-15  0.4740E-13  0.3270E-12  0.9040E-12  0.1220E-11  0.1340E-11  0.1400E-11  0.1450E-11  0.1470E-11  0.1420E-11  0.1320E-11  0.1240E-11
  0.1000E+13  0.1210E-20  0.1720E-17  0.5250E-15  0.3260E-13  0.2100E-12  0.5300E-12  0.6960E-12  0.7590E-12  0.7930E-12  0.8240E-12  0.8430E-12  0.8300E-12  0.7870E-12  0.7500E-12
  0.1000E+14  0.9120E-21  0.1090E-17  0.2830E-15  0.1520E-13  0.9080E-13  0.2280E-12  0.3010E-12  0.3300E-12  0.3450E-12  0.3580E-12  0.3640E-12  0.3550E-12  0.3340E-12  0.3170E-12
  0.1000E+15  0.8360E-21  0.9100E-18  0.2170E-15  0.1110E-13  0.6940E-13  0.1850E-12  0.2470E-12  0.2710E-12  0.2830E-12  0.2920E-12  0.2940E-12  0.2810E-12  0.2550E-12  0.2370E-12
  0.1000E+16  0.8280E-21  0.8900E-18  0.2100E-15  0.1070E-13  0.6740E-13  0.1810E-12  0.2430E-12  0.2660E-12  0.2770E-12  0.2860E-12  0.2870E-12  0.2740E-12  0.2480E-12  0.2300E-12
  0.1000E+17  0.8280E-21  0.8880E-18  0.2090E-15  0.1070E-13  0.6720E-13  0.1800E-12  0.2420E-12  0.2650E-12  0.2770E-12  0.2850E-12  0.2870E-12  0.2730E-12  0.2480E-12  0.2290E-12
WAVELENGTH(A)= 
    56.289
 7 14 t 
excit   
     9.930     14.900     24.800     49.600     99.300    248.000    496.000    744.000    993.000   1490.000   2480.000   4960.000   9930.000  14900.000 
  0.1000E+11  0.2820E-20  0.3760E-17  0.1090E-14  0.6670E-13  0.4560E-12  0.1280E-11  0.1740E-11  0.1920E-11  0.2000E-11  0.2070E-11  0.2090E-11  0.2000E-11  0.1820E-11  0.1690E-11
  0.1000E+12  0.2870E-20  0.3780E-17  0.1090E-14  0.6590E-13  0.4410E-12  0.1190E-11  0.1580E-11  0.1730E-11  0.1800E-11  0.1860E-11  0.1870E-11  0.1790E-11  0.1640E-11  0.1530E-11
  0.1000E+13  0.2770E-20  0.3500E-17  0.9640E-15  0.5540E-13  0.3390E-12  0.8190E-12  0.1050E-11  0.1130E-11  0.1170E-11  0.1210E-11  0.1220E-11  0.1190E-11  0.1110E-11  0.1050E-11
  0.1000E+14  0.2020E-20  0.2150E-17  0.5030E-15  0.2510E-13  0.1410E-12  0.3370E-12  0.4380E-12  0.4780E-12  0.4990E-12  0.5180E-12  0.5270E-12  0.5170E-12  0.4890E-12  0.4670E-12
  0.1000E+15  0.1530E-20  0.1470E-17  0.3170E-15  0.1520E-13  0.9090E-13  0.2370E-12  0.3150E-12  0.3450E-12  0.3590E-12  0.3710E-12  0.3740E-12  0.3580E-12  0.3280E-12  0.3050E-12
  0.1000E+16  0.1460E-20  0.1390E-17  0.2950E-15  0.1410E-13  0.8550E-13  0.2260E-12  0.3020E-12  0.3300E-12  0.3440E-12  0.3550E-12  0.3570E-12  0.3410E-12  0.3090E-12  0.2870E-12
  0.1000E+17  0.1450E-20  0.1380E-17  0.2930E-15  0.1400E-13  0.8500E-13  0.2250E-12  0.3000E-12  0.3290E-12  0.3430E-12  0.3540E-12  0.3550E-12  0.3390E-12  0.3070E-12  0.2850E-12
WAVELENGTH(A)= 
    56.858
 7 14 t 
excit   
     9.930     14.900     24.800     49.600     99.300    248.000    496.000    744.000    993.000   1490.000   2480.000   4960.000   9930.000  14900.000 
  0.1000E+11  0.3320E-20  0.4100E-17  0.1120E-14  0.6540E-13  0.4380E-12  0.1210E-11  0.1630E-11  0.1790E-11  0.1880E-11  0.1930E-11  0.1950E-11  0.1870E-11  0.1700E-11  0.1580E-11
  0.1000E+12  0.2970E-20  0.3620E-17  0.9720E-15  0.5590E-13  0.3660E-12  0.9850E-12  0.1310E-11  0.1440E-11  0.1500E-11  0.1550E-11  0.1570E-11  0.1520E-11  0.1400E-11  0.1320E-11
  0.1000E+13  0.2270E-20  0.2660E-17  0.6880E-15  0.3790E-13  0.2300E-12  0.5560E-12  0.7160E-12  0.7810E-12  0.8160E-12  0.8470E-12  0.8660E-12  0.8580E-12  0.8170E-12  0.7820E-12
  0.1000E+14  0.1420E-20  0.1410E-17  0.3110E-15  0.1480E-13  0.8130E-13  0.1920E-12  0.2490E-12  0.2720E-12  0.2850E-12  0.2960E-12  0.3030E-12  0.3000E-12  0.2860E-12  0.2740E-12
  0.1000E+15  0.1040E-20  0.9330E-18  0.1890E-15  0.8670E-14  0.5100E-13  0.1320E-12  0.1750E-12  0.1920E-12  0.2000E-12  0.2070E-12  0.2080E-12  0.2000E-12  0.1830E-12  0.1700E-12
  0.1000E+16  0.9940E-21  0.8760E-18  0.1760E-15  0.8020E-14  0.4790E-13  0.1260E-12  0.1680E-12  0.1840E-12  0.1920E-12  0.1980E-12  0.1990E-12  0.1900E-12  0.1720E-12  0.1590E-12
  0.1000E+17  0.9890E-21  0.8710E-18  0.1740E-15  0.7950E-14  0.4760E-13  0.1250E-12  0.1670E-12  0.1830E-12  0.1910E-12  0.1970E-12  0.1980E-12  0.1890E-12  0.1710E-12  0.1580E-12
WAVELENGTH(A)= 
    56.861
 7 14 t 
excit   
     9.930     14.900     24.800     49.600     99.300    248.000    496.000    744.000    993.000   1490.000   2480.000   4960.000   9930.000  14900.000 
  0.1000E+11  0.1130E-19  0.1400E-16  0.3810E-14  0.2230E-12  0.1490E-11  0.4130E-11  0.5590E-11  0.6130E-11  0.6400E-11  0.6610E-11  0.6660E-11  0.6370E-11  0.5790E-11  0.5380E-11
  0.1000E+12  0.1140E-19  0.1400E-16  0.3770E-14  0.2180E-12  0.1420E-11  0.3760E-11  0.4970E-11  0.5410E-11  0.5620E-11  0.5790E-11  0.5830E-11  0.5590E-11  0.5130E-11  0.4800E-11
  0.1000E+13  0.1040E-19  0.1220E-16  0.3140E-14  0.1720E-12  0.1000E-11  0.2280E-11  0.2850E-11  0.3050E-11  0.3150E-11  0.3240E-11  0.3280E-11  0.3220E-11  0.3040E-11  0.2910E-11
  0.1000E+14  0.5790E-20  0.5730E-17  0.1260E-14  0.5950E-13  0.3090E-12  0.6800E-12  0.8640E-12  0.9350E-12  0.9730E-12  0.1010E-11  0.1030E-11  0.1010E-11  0.9710E-12  0.9370E-12
  0.1000E+15  0.3360E-20  0.3000E-17  0.6080E-15  0.2780E-13  0.1610E-12  0.4090E-12  0.5420E-12  0.5920E-12  0.6160E-12  0.6360E-12  0.6410E-12  0.6140E-12  0.5620E-12  0.5250E-12
  0.1000E+16  0.3030E-20  0.2670E-17  0.5350E-15  0.2450E-13  0.1460E-12  0.3820E-12  0.5100E-12  0.5570E-12  0.5810E-12  0.5990E-12  0.6020E-12  0.5730E-12  0.5200E-12  0.4820E-12
  0.1000E+17  0.3000E-20  0.2640E-17  0.5280E-15  0.2410E-13  0.1440E-12  0.3800E-12  0.5070E-12  0.5540E-12  0.5770E-12  0.5950E-12  0.5980E-12  0.5690E-12  0.5160E-12  0.4780E-12
WAVELENGTH(A)= 
    56.887
 7 14 t 
excit   
     9.930     14.900     24.800     49.600     99.300    248.000    496.000    744.000    993.000   1490.000   2480.000   4960.000   9930.000  14900.000 
  0.1000E+11  0.2610E-20  0.3220E-17  0.8730E-15  0.5120E-13  0.3430E-12  0.9550E-12  0.1290E-11  0.1420E-11  0.1480E-11  0.1530E-11  0.1540E-11  0.1470E-11  0.1330E-11  0.1240E-11
  0.1000E+12  0.2400E-20  0.2920E-17  0.7810E-15  0.4530E-13  0.3010E-12  0.8340E-12  0.1130E-11  0.1240E-11  0.1300E-11  0.1350E-11  0.1360E-11  0.1310E-11  0.1200E-11  0.1120E-11
  0.1000E+13  0.2000E-20  0.2340E-17  0.6010E-15  0.3350E-13  0.2120E-12  0.5500E-12  0.7300E-12  0.8040E-12  0.8430E-12  0.8810E-12  0.9040E-12  0.8930E-12  0.8460E-12  0.8050E-12
  0.1000E+14  0.1540E-20  0.1510E-17  0.3310E-15  0.1600E-13  0.9110E-13  0.2240E-12  0.2960E-12  0.3250E-12  0.3400E-12  0.3550E-12  0.3640E-12  0.3590E-12  0.3420E-12  0.3280E-12
  0.1000E+15  0.1280E-20  0.1140E-17  0.2310E-15  0.1060E-13  0.6240E-13  0.1620E-12  0.2160E-12  0.2370E-12  0.2470E-12  0.2550E-12  0.2570E-12  0.2460E-12  0.2250E-12  0.2100E-12
  0.1000E+16  0.1250E-20  0.1090E-17  0.2190E-15  0.9950E-14  0.5940E-13  0.1560E-12  0.2080E-12  0.2280E-12  0.2370E-12  0.2450E-12  0.2460E-12  0.2340E-12  0.2130E-12  0.1970E-12
  0.1000E+17  0.1240E-20  0.1090E-17  0.2170E-15  0.9890E-14  0.5900E-13  0.1550E-12  0.2070E-12  0.2270E-12  0.2360E-12  0.2440E-12  0.2450E-12  0.2330E-12  0.2110E-12  0.1960E-12
WAVELENGTH(A)= 
    56.972
 7 14 t 
excit   
     9.930     14.900     24.800     49.600     99.300    248.000    496.000    744.000    993.000   1490.000   2480.000   4960.000   9930.000  14900.000 
  0.1000E+11  0.8180E-20  0.9940E-17  0.2680E-14  0.1560E-12  0.1040E-11  0.2850E-11  0.3840E-11  0.4210E-11  0.4400E-11  0.4550E-11  0.4580E-11  0.4390E-11  0.4000E-11  0.3740E-11
  0.1000E+12  0.7480E-20  0.8970E-17  0.2390E-14  0.1370E-12  0.8830E-12  0.2320E-11  0.3070E-11  0.3340E-11  0.3480E-11  0.3590E-11  0.3630E-11  0.3510E-11  0.3250E-11  0.3060E-11
  0.1000E+13  0.5940E-20  0.6850E-17  0.1760E-14  0.9590E-13  0.5680E-12  0.1330E-11  0.1690E-11  0.1820E-11  0.1890E-11  0.1950E-11  0.1980E-11  0.1950E-11  0.1840E-11  0.1770E-11
  0.1000E+14  0.3700E-20  0.3610E-17  0.7880E-15  0.3730E-13  0.2010E-12  0.4630E-12  0.5980E-12  0.6500E-12  0.6780E-12  0.7040E-12  0.7180E-12  0.7070E-12  0.6720E-12  0.6460E-12
  0.1000E+15  0.2610E-20  0.2290E-17  0.4610E-15  0.2090E-13  0.1220E-12  0.3120E-12  0.4140E-12  0.4520E-12  0.4710E-12  0.4870E-12  0.4900E-12  0.4690E-12  0.4290E-12  0.4000E-12
  0.1000E+16  0.2460E-20  0.2130E-17  0.4230E-15  0.1910E-13  0.1140E-12  0.2970E-12  0.3950E-12  0.4320E-12  0.4500E-12  0.4640E-12  0.4660E-12  0.4440E-12  0.4030E-12  0.3740E-12
  0.1000E+17  0.2440E-20  0.2120E-17  0.4190E-15  0.1900E-13  0.1130E-12  0.2950E-12  0.3930E-12  0.4290E-12  0.4480E-12  0.4620E-12  0.4640E-12  0.4410E-12  0.4000E-12  0.3710E-12
WAVELENGTH(A)= 
    57.115
 7 14 t 
excit   
     9.930     14.900     24.800     49.600     99.300    248.000    496.000    744.000    993.000   1490.000   2480.000   4960.000   9930.000  14900.000 
  0.1000E+11  0.1680E-20  0.2530E-17  0.8140E-15  0.5350E-13  0.3780E-12  0.1080E-11  0.1490E-11  0.1630E-11  0.1710E-11  0.1770E-11  0.1790E-11  0.1710E-11  0.1560E-11  0.1450E-11
  0.1000E+12  0.1500E-20  0.2230E-17  0.7060E-15  0.4570E-13  0.3150E-12  0.8720E-12  0.1180E-11  0.1290E-11  0.1350E-11  0.1400E-11  0.1420E-11  0.1370E-11  0.1270E-11  0.1190E-11
  0.1000E+13  0.1160E-20  0.1660E-17  0.5060E-15  0.3140E-13  0.2020E-12  0.5110E-12  0.6710E-12  0.7320E-12  0.7650E-12  0.7950E-12  0.8120E-12  0.8010E-12  0.7590E-12  0.7230E-12
  0.1000E+14  0.8790E-21  0.1060E-17  0.2730E-15  0.1470E-13  0.8760E-13  0.2200E-12  0.2910E-12  0.3180E-12  0.3320E-12  0.3450E-12  0.3510E-12  0.3420E-12  0.3220E-12  0.3050E-12
  0.1000E+15  0.8060E-21  0.8770E-18  0.2090E-15  0.1070E-13  0.6690E-13  0.1780E-12  0.2390E-12  0.2610E-12  0.2730E-12  0.2810E-12  0.2830E-12  0.2710E-12  0.2460E-12  0.2290E-12
  0.1000E+16  0.7990E-21  0.8580E-18  0.2020E-15  0.1040E-13  0.6500E-13  0.1740E-12  0.2340E-12  0.2560E-12  0.2670E-12  0.2750E-12  0.2770E-12  0.2640E-12  0.2390E-12  0.2220E-12
  0.1000E+17  0.7980E-21  0.8560E-18  0.2010E-15  0.1030E-13  0.6480E-13  0.1740E-12  0.2330E-12  0.2560E-12  0.2670E-12  0.2750E-12  0.2760E-12  0.2630E-12  0.2390E-12  0.2210E-12
WAVELENGTH(A)= 
    57.242
 7 14 t 
excit   
     9.930     14.900     24.800     49.600     99.300    248.000    496.000    744.000    993.000   1490.000   2480.000   4960.000   9930.000  14900.000 
  0.1000E+11  0.7420E-20  0.9200E-17  0.2510E-14  0.1470E-12  0.9830E-12  0.2720E-11  0.3680E-11  0.4040E-11  0.4220E-11  0.4350E-11  0.4390E-11  0.4190E-11  0.3810E-11  0.3540E-11
  0.1000E+12  0.7480E-20  0.9190E-17  0.2480E-14  0.1440E-12  0.9370E-12  0.2480E-11  0.3270E-11  0.3560E-11  0.3700E-11  0.3810E-11  0.3840E-11  0.3680E-11  0.3380E-11  0.3160E-11
  0.1000E+13  0.6830E-20  0.8020E-17  0.2070E-14  0.1130E-12  0.6600E-12  0.1500E-11  0.1880E-11  0.2010E-11  0.2080E-11  0.2140E-11  0.2160E-11  0.2120E-11  0.2000E-11  0.1920E-11
  0.1000E+14  0.3820E-20  0.3770E-17  0.8290E-15  0.3920E-13  0.2030E-12  0.4480E-12  0.5690E-12  0.6160E-12  0.6410E-12  0.6640E-12  0.6770E-12  0.6680E-12  0.6390E-12  0.6170E-12
  0.1000E+15  0.2210E-20  0.1980E-17  0.4010E-15  0.1830E-13  0.1060E-12  0.2700E-12  0.3570E-12  0.3900E-12  0.4060E-12  0.4190E-12  0.4220E-12  0.4040E-12  0.3700E-12  0.3460E-12
  0.1000E+16  0.2000E-20  0.1760E-17  0.3530E-15  0.1610E-13  0.9610E-13  0.2520E-12  0.3360E-12  0.3670E-12  0.3820E-12  0.3940E-12  0.3960E-12  0.3770E-12  0.3420E-12  0.3170E-12
  0.1000E+17  0.1970E-20  0.1740E-17  0.3480E-15  0.1590E-13  0.9520E-13  0.2500E-12  0.3340E-12  0.3650E-12  0.3800E-12  0.3920E-12  0.3940E-12  0.3750E-12  0.3400E-12  0.3150E-12
WAVELENGTH(A)= 
    57.364
 7 14 t 
excit   
     9.930     14.900     24.800     49.600     99.300    248.000    496.000    744.000    993.000   1490.000   2480.000   4960.000   9930.000  14900.000 
  0.1000E+11  0.1170E-19  0.1360E-16  0.3540E-14  0.1990E-12  0.1300E-11  0.3570E-11  0.4780E-11  0.5240E-11  0.5480E-11  0.5640E-11  0.5680E-11  0.5420E-11  0.4940E-11  0.4570E-11
  0.1000E+12  0.1110E-19  0.1280E-16  0.3280E-14  0.1820E-12  0.1160E-11  0.3010E-11  0.3940E-11  0.4280E-11  0.4460E-11  0.4590E-11  0.4620E-11  0.4440E-11  0.4100E-11  0.3830E-11
  0.1000E+13  0.9350E-20  0.1030E-16  0.2530E-14  0.1330E-12  0.7620E-12  0.1710E-11  0.2120E-11  0.2270E-11  0.2350E-11  0.2410E-11  0.2440E-11  0.2380E-11  0.2260E-11  0.2150E-11
  0.1000E+14  0.5300E-20  0.4920E-17  0.1030E-14  0.4690E-13  0.2390E-12  0.5240E-12  0.6600E-12  0.7130E-12  0.7410E-12  0.7650E-12  0.7780E-12  0.7640E-12  0.7280E-12  0.6990E-12
  0.1000E+15  0.3180E-20  0.2670E-17  0.5140E-15  0.2260E-13  0.1290E-12  0.3230E-12  0.4250E-12  0.4630E-12  0.4820E-12  0.4960E-12  0.4990E-12  0.4770E-12  0.4350E-12  0.4050E-12
  0.1000E+16  0.2890E-20  0.2390E-17  0.4560E-15  0.2000E-13  0.1170E-12  0.3030E-12  0.4020E-12  0.4380E-12  0.4560E-12  0.4690E-12  0.4710E-12  0.4470E-12  0.4050E-12  0.3750E-12
  0.1000E+17  0.2870E-20  0.2370E-17  0.4500E-15  0.1980E-13  0.1160E-12  0.3010E-12  0.3990E-12  0.4350E-12  0.4540E-12  0.4660E-12  0.4680E-12  0.4440E-12  0.4020E-12  0.3720E-12
WAVELENGTH(A)= 
    57.409
 7 14 t 
excit   
     9.930     14.900     24.800     49.600     99.300    248.000    496.000    744.000    993.000   1490.000   2480.000   4960.000   9930.000  14900.000 
  0.1000E+11  0.2760E-20  0.3360E-17  0.9040E-15  0.5250E-13  0.3520E-12  0.9790E-12  0.1320E-11  0.1450E-11  0.1510E-11  0.1560E-11  0.1560E-11  0.1490E-11  0.1340E-11  0.1240E-11
  0.1000E+12  0.3400E-20  0.4130E-17  0.1110E-14  0.6430E-13  0.4220E-12  0.1130E-11  0.1490E-11  0.1620E-11  0.1670E-11  0.1720E-11  0.1710E-11  0.1620E-11  0.1460E-11  0.1350E-11
  0.1000E+13  0.3960E-20  0.4540E-17  0.1150E-14  0.6230E-13  0.3630E-12  0.8240E-12  0.1030E-11  0.1100E-11  0.1140E-11  0.1170E-11  0.1170E-11  0.1140E-11  0.1070E-11  0.1010E-11
  0.1000E+14  0.2420E-20  0.2330E-17  0.5010E-15  0.2340E-13  0.1220E-12  0.2710E-12  0.3450E-12  0.3740E-12  0.3880E-12  0.4030E-12  0.4090E-12  0.4030E-12  0.3840E-12  0.3690E-12
  0.1000E+15  0.1450E-20  0.1270E-17  0.2530E-15  0.1140E-13  0.6590E-13  0.1670E-12  0.2200E-12  0.2410E-12  0.2500E-12  0.2590E-12  0.2600E-12  0.2490E-12  0.2280E-12  0.2120E-12
  0.1000E+16  0.1320E-20  0.1140E-17  0.2250E-15  0.1010E-13  0.6010E-13  0.1560E-12  0.2080E-12  0.2270E-12  0.2360E-12  0.2440E-12  0.2440E-12  0.2330E-12  0.2110E-12  0.1950E-12
  0.1000E+17  0.1310E-20  0.1130E-17  0.2220E-15  0.1000E-13  0.5950E-13  0.1550E-12  0.2060E-12  0.2260E-12  0.2350E-12  0.2420E-12  0.2420E-12  0.2310E-12  0.2090E-12  0.1940E-12
WAVELENGTH(A)= 
    57.420
 7 14 t 
excit   
     9.930     14.900     24.800     49.600     99.300    248.000    496.000    744.000    993.000   1490.000   2480.000   4960.000   9930.000  14900.000 
  0.1000E+11  0.3860E-19  0.4440E-16  0.1140E-13  0.6410E-12  0.4190E-11  0.1140E-10  0.1530E-10  0.1680E-10  0.1750E-10  0.1810E-10  0.1820E-10  0.1740E-10  0.1590E-10  0.1470E-10
  0.1000E+12  0.3530E-19  0.4020E-16  0.1020E-13  0.5620E-12  0.3560E-11  0.9230E-11  0.1210E-10  0.1320E-10  0.1370E-10  0.1410E-10  0.1430E-10  0.1380E-10  0.1280E-10  0.1200E-10
  0.1000E+13  0.2760E-19  0.3020E-16  0.7370E-14  0.3870E-12  0.2210E-11  0.4970E-11  0.6210E-11  0.6660E-11  0.6890E-11  0.7090E-11  0.7200E-11  0.7090E-11  0.6750E-11  0.6460E-11
  0.1000E+14  0.1470E-19  0.1360E-16  0.2830E-14  0.1280E-12  0.6510E-12  0.1410E-11  0.1790E-11  0.1930E-11  0.2010E-11  0.2080E-11  0.2120E-11  0.2100E-11  0.2020E-11  0.1940E-11
  0.1000E+15  0.8420E-20  0.7020E-17  0.1350E-14  0.5890E-13  0.3340E-12  0.8410E-12  0.1110E-11  0.1210E-11  0.1260E-11  0.1300E-11  0.1310E-11  0.1250E-11  0.1150E-11  0.1070E-11
  0.1000E+16  0.7590E-20  0.6230E-17  0.1180E-14  0.5160E-13  0.3020E-12  0.7850E-12  0.1040E-11  0.1140E-11  0.1180E-11  0.1220E-11  0.1230E-11  0.1170E-11  0.1060E-11  0.9790E-12
  0.1000E+17  0.7510E-20  0.6150E-17  0.1160E-14  0.5090E-13  0.2990E-12  0.7790E-12  0.1040E-11  0.1130E-11  0.1180E-11  0.1210E-11  0.1220E-11  0.1160E-11  0.1050E-11  0.9700E-12
WAVELENGTH(A)= 
    57.650
 7 14 t 
excit   
     9.930     14.900     24.800     49.600     99.300    248.000    496.000    744.000    993.000   1490.000   2480.000   4960.000   9930.000  14900.000 
  0.1000E+11  0.1530E-20  0.2300E-17  0.7340E-15  0.4840E-13  0.3440E-12  0.9850E-12  0.1350E-11  0.1490E-11  0.1550E-11  0.1610E-11  0.1630E-11  0.1560E-11  0.1420E-11  0.1320E-11
  0.1000E+12  0.1460E-20  0.2180E-17  0.6890E-15  0.4480E-13  0.3120E-12  0.8630E-12  0.1160E-11  0.1280E-11  0.1330E-11  0.1370E-11  0.1390E-11  0.1340E-11  0.1230E-11  0.1150E-11
  0.1000E+13  0.1310E-20  0.1870E-17  0.5650E-15  0.3520E-13  0.2300E-12  0.5950E-12  0.7840E-12  0.8570E-12  0.8930E-12  0.9230E-12  0.9370E-12  0.9090E-12  0.8460E-12  0.7960E-12
  0.1000E+14  0.1330E-20  0.1600E-17  0.4130E-15  0.2260E-13  0.1420E-12  0.3750E-12  0.5030E-12  0.5540E-12  0.5790E-12  0.6010E-12  0.6100E-12  0.5900E-12  0.5460E-12  0.5120E-12
  0.1000E+15  0.1490E-20  0.1630E-17  0.3860E-15  0.1990E-13  0.1250E-12  0.3370E-12  0.4520E-12  0.4970E-12  0.5180E-12  0.5360E-12  0.5400E-12  0.5160E-12  0.4710E-12  0.4370E-12
  0.1000E+16  0.1520E-20  0.1630E-17  0.3840E-15  0.1960E-13  0.1230E-12  0.3330E-12  0.4470E-12  0.4910E-12  0.5120E-12  0.5290E-12  0.5320E-12  0.5080E-12  0.4610E-12  0.4270E-12
  0.1000E+17  0.1530E-20  0.1640E-17  0.3840E-15  0.1960E-13  0.1230E-12  0.3320E-12  0.4460E-12  0.4900E-12  0.5110E-12  0.5280E-12  0.5310E-12  0.5070E-12  0.4600E-12  0.4260E-12
WAVELENGTH(A)= 
    57.672
 7 14 t 
excit   
     9.930     14.900     24.800     49.600     99.300    248.000    496.000    744.000    993.000   1490.000   2480.000   4960.000   9930.000  14900.000 
  0.1000E+11  0.1540E-19  0.1730E-16  0.4350E-14  0.2400E-12  0.1560E-11  0.4240E-11  0.5700E-11  0.6250E-11  0.6510E-11  0.6700E-11  0.6730E-11  0.6410E-11  0.5790E-11  0.5390E-11
  0.1000E+12  0.1640E-19  0.1820E-16  0.4570E-14  0.2490E-12  0.1580E-11  0.4110E-11  0.5400E-11  0.5860E-11  0.6070E-11  0.6230E-11  0.6230E-11  0.5950E-11  0.5410E-11  0.5050E-11
  0.1000E+13  0.1610E-19  0.1700E-16  0.4050E-14  0.2080E-12  0.1180E-11  0.2610E-11  0.3220E-11  0.3450E-11  0.3550E-11  0.3640E-11  0.3670E-11  0.3580E-11  0.3370E-11  0.3220E-11
  0.1000E+14  0.8830E-20  0.7860E-17  0.1590E-14  0.7060E-13  0.3530E-12  0.7530E-12  0.9460E-12  0.1020E-11  0.1060E-11  0.1100E-11  0.1110E-11  0.1100E-11  0.1050E-11  0.1020E-11
  0.1000E+15  0.4790E-20  0.3860E-17  0.7220E-15  0.3100E-13  0.1740E-12  0.4320E-12  0.5680E-12  0.6190E-12  0.6440E-12  0.6630E-12  0.6660E-12  0.6380E-12  0.5830E-12  0.5450E-12
  0.1000E+16  0.4250E-20  0.3380E-17  0.6240E-15  0.2680E-13  0.1560E-12  0.4000E-12  0.5300E-12  0.5790E-12  0.6020E-12  0.6200E-12  0.6210E-12  0.5910E-12  0.5340E-12  0.4950E-12
  0.1000E+17  0.4190E-20  0.3330E-17  0.6140E-15  0.2640E-13  0.1540E-12  0.3970E-12  0.5260E-12  0.5750E-12  0.5980E-12  0.6150E-12  0.6160E-12  0.5860E-12  0.5290E-12  0.4900E-12
WAVELENGTH(A)= 
    57.738
 7 14 t 
excit   
     9.930     14.900     24.800     49.600     99.300    248.000    496.000    744.000    993.000   1490.000   2480.000   4960.000   9930.000  14900.000 
  0.1000E+11  0.2670E-19  0.2950E-16  0.7360E-14  0.4020E-12  0.2600E-11  0.7040E-11  0.9440E-11  0.1030E-10  0.1080E-10  0.1110E-10  0.1120E-10  0.1070E-10  0.9730E-11  0.9030E-11
  0.1000E+12  0.2410E-19  0.2630E-16  0.6470E-14  0.3480E-12  0.2190E-11  0.5660E-11  0.7440E-11  0.8110E-11  0.8430E-11  0.8710E-11  0.8780E-11  0.8460E-11  0.7840E-11  0.7350E-11
  0.1000E+13  0.1850E-19  0.1940E-16  0.4600E-14  0.2360E-12  0.1350E-11  0.3050E-11  0.3830E-11  0.4120E-11  0.4270E-11  0.4410E-11  0.4480E-11  0.4410E-11  0.4210E-11  0.4030E-11
  0.1000E+14  0.1010E-19  0.8970E-17  0.1810E-14  0.8030E-13  0.4070E-12  0.8900E-12  0.1130E-11  0.1220E-11  0.1270E-11  0.1320E-11  0.1340E-11  0.1330E-11  0.1280E-11  0.1230E-11
  0.1000E+15  0.6030E-20  0.4820E-17  0.8960E-15  0.3830E-13  0.2150E-12  0.5410E-12  0.7120E-12  0.7770E-12  0.8080E-12  0.8340E-12  0.8380E-12  0.8020E-12  0.7340E-12  0.6840E-12
  0.1000E+16  0.5490E-20  0.4320E-17  0.7940E-15  0.3390E-13  0.1960E-12  0.5060E-12  0.6710E-12  0.7330E-12  0.7620E-12  0.7860E-12  0.7870E-12  0.7490E-12  0.6790E-12  0.6280E-12
  0.1000E+17  0.5430E-20  0.4270E-17  0.7830E-15  0.3340E-13  0.1940E-12  0.5030E-12  0.6670E-12  0.7280E-12  0.7570E-12  0.7810E-12  0.7820E-12  0.7430E-12  0.6740E-12  0.6230E-12
WAVELENGTH(A)= 
    57.751
 7 14 t 
excit   
     9.930     14.900     24.800     49.600     99.300    248.000    496.000    744.000    993.000   1490.000   2480.000   4960.000   9930.000  14900.000 
  0.1000E+11  0.3950E-20  0.4590E-17  0.1190E-14  0.6700E-13  0.4390E-12  0.1200E-11  0.1610E-11  0.1760E-11  0.1840E-11  0.1900E-11  0.1910E-11  0.1830E-11  0.1660E-11  0.1540E-11
  0.1000E+12  0.3750E-20  0.4310E-17  0.1100E-14  0.6130E-13  0.3900E-12  0.1010E-11  0.1330E-11  0.1440E-11  0.1500E-11  0.1540E-11  0.1560E-11  0.1500E-11  0.1380E-11  0.1290E-11
  0.1000E+13  0.3150E-20  0.3470E-17  0.8530E-15  0.4490E-13  0.2570E-12  0.5760E-12  0.7150E-12  0.7640E-12  0.7910E-12  0.8100E-12  0.8200E-12  0.8020E-12  0.7600E-12  0.7240E-12
  0.1000E+14  0.1780E-20  0.1660E-17  0.3470E-15  0.1580E-13  0.8060E-13  0.1760E-12  0.2220E-12  0.2400E-12  0.2500E-12  0.2580E-12  0.2620E-12  0.2570E-12  0.2450E-12  0.2350E-12
  0.1000E+15  0.1070E-20  0.8980E-18  0.1730E-15  0.7610E-14  0.4330E-13  0.1090E-12  0.1430E-12  0.1560E-12  0.1620E-12  0.1670E-12  0.1680E-12  0.1610E-12  0.1470E-12  0.1360E-12
  0.1000E+16  0.9750E-21  0.8060E-18  0.1540E-15  0.6740E-14  0.3950E-13  0.1020E-12  0.1350E-12  0.1470E-12  0.1540E-12  0.1580E-12  0.1580E-12  0.1510E-12  0.1360E-12  0.1260E-12
  0.1000E+17  0.9650E-21  0.7960E-18  0.1520E-15  0.6660E-14  0.3910E-13  0.1010E-12  0.1340E-12  0.1470E-12  0.1530E-12  0.1570E-12  0.1570E-12  0.1500E-12  0.1350E-12  0.1250E-12
WAVELENGTH(A)= 
    57.807
 7 14 t 
excit   
     9.930     14.900     24.800     49.600     99.300    248.000    496.000    744.000    993.000   1490.000   2480.000   4960.000   9930.000  14900.000 
  0.1000E+11  0.6300E-20  0.7260E-17  0.1870E-14  0.1050E-12  0.6850E-12  0.1860E-11  0.2500E-11  0.2740E-11  0.2860E-11  0.2950E-11  0.2970E-11  0.2850E-11  0.2590E-11  0.2410E-11
  0.1000E+12  0.5770E-20  0.6560E-17  0.1670E-14  0.9190E-13  0.5820E-12  0.1510E-11  0.1980E-11  0.2160E-11  0.2240E-11  0.2310E-11  0.2330E-11  0.2260E-11  0.2090E-11  0.1960E-11
  0.1000E+13  0.4520E-20  0.4940E-17  0.1210E-14  0.6330E-13  0.3620E-12  0.8130E-12  0.1010E-11  0.1090E-11  0.1130E-11  0.1160E-11  0.1180E-11  0.1160E-11  0.1100E-11  0.1060E-11
  0.1000E+14  0.2410E-20  0.2220E-17  0.4630E-15  0.2100E-13  0.1060E-12  0.2310E-12  0.2920E-12  0.3160E-12  0.3290E-12  0.3400E-12  0.3470E-12  0.3440E-12  0.3290E-12  0.3180E-12
  0.1000E+15  0.1380E-20  0.1150E-17  0.2200E-15  0.9630E-14  0.5460E-13  0.1370E-12  0.1810E-12  0.1980E-12  0.2060E-12  0.2120E-12  0.2140E-12  0.2050E-12  0.1870E-12  0.1750E-12
  0.1000E+16  0.1240E-20  0.1020E-17  0.1930E-15  0.8440E-14  0.4940E-13  0.1280E-12  0.1700E-12  0.1860E-12  0.1940E-12  0.2000E-12  0.2000E-12  0.1910E-12  0.1730E-12  0.1600E-12
  0.1000E+17  0.1230E-20  0.1010E-17  0.1900E-15  0.8320E-14  0.4890E-13  0.1270E-12  0.1690E-12  0.1850E-12  0.1920E-12  0.1980E-12  0.1990E-12  0.1900E-12  0.1720E-12  0.1590E-12
WAVELENGTH(A)= 
    58.063
 7 14 t 
excit   
     9.930     14.900     24.800     49.600     99.300    248.000    496.000    744.000    993.000   1490.000   2480.000   4960.000   9930.000  14900.000 
  0.1000E+11  0.1490E-19  0.1670E-16  0.4210E-14  0.2320E-12  0.1510E-11  0.4110E-11  0.5520E-11  0.6050E-11  0.6300E-11  0.6480E-11  0.6510E-11  0.6200E-11  0.5600E-11  0.5220E-11
  0.1000E+12  0.1590E-19  0.1760E-16  0.4420E-14  0.2410E-12  0.1530E-11  0.3980E-11  0.5220E-11  0.5670E-11  0.5870E-11  0.6020E-11  0.6030E-11  0.5750E-11  0.5230E-11  0.4890E-11
  0.1000E+13  0.1550E-19  0.1640E-16  0.3920E-14  0.2010E-12  0.1140E-11  0.2520E-11  0.3120E-11  0.3330E-11  0.3430E-11  0.3520E-11  0.3550E-11  0.3460E-11  0.3260E-11  0.3110E-11
  0.1000E+14  0.8540E-20  0.7600E-17  0.1540E-14  0.6830E-13  0.3410E-12  0.7290E-12  0.9150E-12  0.9880E-12  0.1020E-11  0.1060E-11  0.1080E-11  0.1060E-11  0.1020E-11  0.9840E-12
  0.1000E+15  0.4630E-20  0.3730E-17  0.6990E-15  0.3000E-13  0.1680E-12  0.4180E-12  0.5490E-12  0.5990E-12  0.6220E-12  0.6420E-12  0.6440E-12  0.6170E-12  0.5640E-12  0.5270E-12
  0.1000E+16  0.4110E-20  0.3270E-17  0.6040E-15  0.2590E-13  0.1500E-12  0.3870E-12  0.5130E-12  0.5600E-12  0.5820E-12  0.5990E-12  0.6000E-12  0.5710E-12  0.5170E-12  0.4790E-12
  0.1000E+17  0.4050E-20  0.3220E-17  0.5940E-15  0.2550E-13  0.1490E-12  0.3840E-12  0.5090E-12  0.5560E-12  0.5780E-12  0.5950E-12  0.5960E-12  0.5670E-12  0.5120E-12  0.4740E-12
WAVELENGTH(A)= 
    58.148
 7 14 t 
excit   
     9.930     14.900     24.800     49.600     99.300    248.000    496.000    744.000    993.000   1490.000   2480.000   4960.000   9930.000  14900.000 
  0.1000E+11  0.2880E-20  0.3650E-17  0.1010E-14  0.5920E-13  0.3990E-12  0.1120E-11  0.1520E-11  0.1670E-11  0.1740E-11  0.1800E-11  0.1810E-11  0.1740E-11  0.1580E-11  0.1470E-11
  0.1000E+12  0.2630E-20  0.3290E-17  0.8980E-15  0.5220E-13  0.3490E-12  0.9710E-12  0.1320E-11  0.1450E-11  0.1520E-11  0.1580E-11  0.1600E-11  0.1540E-11  0.1420E-11  0.1320E-11
  0.1000E+13  0.2220E-20  0.2660E-17  0.6990E-15  0.3930E-13  0.2530E-12  0.6720E-12  0.9020E-12  0.9930E-12  0.1040E-11  0.1090E-11  0.1120E-11  0.1100E-11  0.1040E-11  0.9830E-12
  0.1000E+14  0.1960E-20  0.1970E-17  0.4400E-15  0.2150E-13  0.1260E-12  0.3180E-12  0.4220E-12  0.4630E-12  0.4860E-12  0.5070E-12  0.5180E-12  0.5100E-12  0.4820E-12  0.4600E-12
  0.1000E+15  0.1800E-20  0.1640E-17  0.3380E-15  0.1560E-13  0.9310E-13  0.2430E-12  0.3250E-12  0.3550E-12  0.3710E-12  0.3830E-12  0.3860E-12  0.3700E-12  0.3380E-12  0.3150E-12
  0.1000E+16  0.1780E-20  0.1600E-17  0.3250E-15  0.1500E-13  0.8940E-13  0.2350E-12  0.3140E-12  0.3430E-12  0.3580E-12  0.3700E-12  0.3720E-12  0.3540E-12  0.3220E-12  0.2980E-12
  0.1000E+17  0.1780E-20  0.1590E-17  0.3240E-15  0.1490E-13  0.8910E-13  0.2340E-12  0.3130E-12  0.3420E-12  0.3570E-12  0.3690E-12  0.3700E-12  0.3530E-12  0.3200E-12  0.2960E-12
WAVELENGTH(A)= 
    58.294
 7 14 t 
excit   
     9.930     14.900     24.800     49.600     99.300    248.000    496.000    744.000    993.000   1490.000   2480.000   4960.000   9930.000  14900.000 
  0.1000E+11  0.2620E-20  0.3250E-17  0.8850E-15  0.5170E-13  0.3460E-12  0.9600E-12  0.1290E-11  0.1420E-11  0.1480E-11  0.1530E-11  0.1540E-11  0.1480E-11  0.1340E-11  0.1250E-11
  0.1000E+12  0.2350E-20  0.2860E-17  0.7690E-15  0.4430E-13  0.2900E-12  0.7800E-12  0.1040E-11  0.1140E-11  0.1190E-11  0.1230E-11  0.1240E-11  0.1200E-11  0.1110E-11  0.1040E-11
  0.1000E+13  0.1790E-20  0.2100E-17  0.5440E-15  0.3000E-13  0.1820E-12  0.4400E-12  0.5670E-12  0.6180E-12  0.6460E-12  0.6700E-12  0.6860E-12  0.6790E-12  0.6470E-12  0.6190E-12
  0.1000E+14  0.1120E-20  0.1110E-17  0.2460E-15  0.1170E-13  0.6430E-13  0.1520E-12  0.1970E-12  0.2150E-12  0.2260E-12  0.2350E-12  0.2400E-12  0.2370E-12  0.2260E-12  0.2170E-12
  0.1000E+15  0.8250E-21  0.7390E-18  0.1500E-15  0.6860E-14  0.4030E-13  0.1040E-12  0.1390E-12  0.1520E-12  0.1590E-12  0.1640E-12  0.1650E-12  0.1580E-12  0.1450E-12  0.1350E-12
  0.1000E+16  0.7870E-21  0.6940E-18  0.1390E-15  0.6340E-14  0.3790E-13  0.9960E-13  0.1330E-12  0.1450E-12  0.1520E-12  0.1570E-12  0.1570E-12  0.1500E-12  0.1360E-12  0.1260E-12
  0.1000E+17  0.7830E-21  0.6890E-18  0.1380E-15  0.6290E-14  0.3770E-13  0.9920E-13  0.1320E-12  0.1450E-12  0.1510E-12  0.1560E-12  0.1570E-12  0.1490E-12  0.1350E-12  0.1250E-12
WAVELENGTH(A)= 
    58.325
 7 14 t 
excit   
     9.930     14.900     24.800     49.600     99.300    248.000    496.000    744.000    993.000   1490.000   2480.000   4960.000   9930.000  14900.000 
  0.1000E+11  0.3970E-20  0.4900E-17  0.1330E-14  0.7790E-13  0.5220E-12  0.1450E-11  0.1960E-11  0.2160E-11  0.2250E-11  0.2320E-11  0.2340E-11  0.2230E-11  0.2030E-11  0.1880E-11
  0.1000E+12  0.3650E-20  0.4440E-17  0.1190E-14  0.6890E-13  0.4580E-12  0.1270E-11  0.1720E-11  0.1890E-11  0.1980E-11  0.2050E-11  0.2070E-11  0.1990E-11  0.1830E-11  0.1700E-11
  0.1000E+13  0.3040E-20  0.3550E-17  0.9140E-15  0.5100E-13  0.3230E-12  0.8360E-12  0.1110E-11  0.1220E-11  0.1280E-11  0.1340E-11  0.1370E-11  0.1360E-11  0.1290E-11  0.1230E-11
  0.1000E+14  0.2340E-20  0.2300E-17  0.5040E-15  0.2430E-13  0.1390E-12  0.3410E-12  0.4500E-12  0.4940E-12  0.5170E-12  0.5400E-12  0.5530E-12  0.5460E-12  0.5200E-12  0.4990E-12
  0.1000E+15  0.1950E-20  0.1740E-17  0.3510E-15  0.1610E-13  0.9500E-13  0.2470E-12  0.3290E-12  0.3600E-12  0.3760E-12  0.3880E-12  0.3920E-12  0.3750E-12  0.3430E-12  0.3190E-12
  0.1000E+16  0.1890E-20  0.1660E-17  0.3330E-15  0.1510E-13  0.9030E-13  0.2370E-12  0.3160E-12  0.3460E-12  0.3610E-12  0.3720E-12  0.3740E-12  0.3560E-12  0.3240E-12  0.3000E-12
  0.1000E+17  0.1890E-20  0.1660E-17  0.3310E-15  0.1500E-13  0.8980E-13  0.2360E-12  0.3150E-12  0.3450E-12  0.3590E-12  0.3710E-12  0.3730E-12  0.3550E-12  0.3220E-12  0.2980E-12
WAVELENGTH(A)= 
    59.219
 7 14 t 
excit   
     9.930     14.900     24.800     49.600     99.300    248.000    496.000    744.000    993.000   1490.000   2480.000   4960.000   9930.000  14900.000 
  0.1000E+11  0.8050E-20  0.8900E-17  0.2220E-14  0.1210E-12  0.7850E-12  0.2120E-11  0.2850E-11  0.3120E-11  0.3250E-11  0.3350E-11  0.3370E-11  0.3220E-11  0.2930E-11  0.2720E-11
  0.1000E+12  0.7270E-20  0.7930E-17  0.1950E-14  0.1050E-12  0.6590E-12  0.1710E-11  0.2240E-11  0.2450E-11  0.2540E-11  0.2620E-11  0.2650E-11  0.2550E-11  0.2360E-11  0.2220E-11
  0.1000E+13  0.5580E-20  0.5850E-17  0.1390E-14  0.7110E-13  0.4060E-12  0.9190E-12  0.1150E-11  0.1240E-11  0.1290E-11  0.1330E-11  0.1350E-11  0.1330E-11  0.1270E-11  0.1210E-11
  0.1000E+14  0.3050E-20  0.2700E-17  0.5460E-15  0.2420E-13  0.1230E-12  0.2680E-12  0.3400E-12  0.3690E-12  0.3830E-12  0.3980E-12  0.4050E-12  0.4000E-12  0.3850E-12  0.3710E-12
  0.1000E+15  0.1820E-20  0.1450E-17  0.2700E-15  0.1160E-13  0.6500E-13  0.1630E-12  0.2150E-12  0.2340E-12  0.2440E-12  0.2520E-12  0.2530E-12  0.2420E-12  0.2210E-12  0.2060E-12
  0.1000E+16  0.1650E-20  0.1300E-17  0.2390E-15  0.1020E-13  0.5910E-13  0.1530E-12  0.2020E-12  0.2210E-12  0.2300E-12  0.2370E-12  0.2370E-12  0.2260E-12  0.2050E-12  0.1900E-12
  0.1000E+17  0.1640E-20  0.1290E-17  0.2360E-15  0.1010E-13  0.5860E-13  0.1520E-12  0.2010E-12  0.2200E-12  0.2280E-12  0.2350E-12  0.2360E-12  0.2240E-12  0.2030E-12  0.1880E-12
WAVELENGTH(A)= 
    59.314
 7 14 t 
excit   
     9.930     14.900     24.800     49.600     99.300    248.000    496.000    744.000    993.000   1490.000   2480.000   4960.000   9930.000  14900.000 
  0.1000E+11  0.6580E-20  0.7580E-17  0.1950E-14  0.1090E-12  0.7140E-12  0.1940E-11  0.2610E-11  0.2860E-11  0.2980E-11  0.3080E-11  0.3100E-11  0.2970E-11  0.2700E-11  0.2510E-11
  0.1000E+12  0.6020E-20  0.6850E-17  0.1740E-14  0.9590E-13  0.6080E-12  0.1570E-11  0.2070E-11  0.2250E-11  0.2340E-11  0.2410E-11  0.2440E-11  0.2360E-11  0.2180E-11  0.2040E-11
  0.1000E+13  0.4710E-20  0.5150E-17  0.1260E-14  0.6600E-13  0.3770E-12  0.8480E-12  0.1060E-11  0.1140E-11  0.1170E-11  0.1210E-11  0.1230E-11  0.1210E-11  0.1150E-11  0.1100E-11
  0.1000E+14  0.2510E-20  0.2320E-17  0.4830E-15  0.2190E-13  0.1110E-12  0.2410E-12  0.3050E-12  0.3300E-12  0.3430E-12  0.3550E-12  0.3620E-12  0.3580E-12  0.3440E-12  0.3310E-12
  0.1000E+15  0.1440E-20  0.1200E-17  0.2300E-15  0.1000E-13  0.5700E-13  0.1430E-12  0.1890E-12  0.2060E-12  0.2150E-12  0.2210E-12  0.2230E-12  0.2140E-12  0.1960E-12  0.1820E-12
  0.1000E+16  0.1290E-20  0.1060E-17  0.2010E-15  0.8800E-14  0.5160E-13  0.1340E-12  0.1780E-12  0.1940E-12  0.2020E-12  0.2080E-12  0.2090E-12  0.1990E-12  0.1810E-12  0.1670E-12
  0.1000E+17  0.1280E-20  0.1050E-17  0.1980E-15  0.8680E-14  0.5100E-13  0.1330E-12  0.1770E-12  0.1930E-12  0.2010E-12  0.2070E-12  0.2080E-12  0.1980E-12  0.1790E-12  0.1660E-12
WAVELENGTH(A)= 
    59.445
 7 14 t 
excit   
     9.930     14.900     24.800     49.600     99.300    248.000    496.000    744.000    993.000   1490.000   2480.000   4960.000   9930.000  14900.000 
  0.1000E+11  0.3250E-20  0.3740E-17  0.9630E-15  0.5400E-13  0.3530E-12  0.9600E-12  0.1290E-11  0.1410E-11  0.1470E-11  0.1520E-11  0.1530E-11  0.1470E-11  0.1340E-11  0.1240E-11
  0.1000E+12  0.2970E-20  0.3380E-17  0.8590E-15  0.4740E-13  0.3000E-12  0.7780E-12  0.1020E-11  0.1110E-11  0.1160E-11  0.1190E-11  0.1200E-11  0.1160E-11  0.1080E-11  0.1010E-11
  0.1000E+13  0.2330E-20  0.2540E-17  0.6210E-15  0.3260E-13  0.1860E-12  0.4190E-12  0.5230E-12  0.5610E-12  0.5800E-12  0.5970E-12  0.6060E-12  0.5980E-12  0.5680E-12  0.5440E-12
  0.1000E+14  0.1240E-20  0.1150E-17  0.2390E-15  0.1080E-13  0.5480E-13  0.1190E-12  0.1510E-12  0.1630E-12  0.1690E-12  0.1750E-12  0.1790E-12  0.1770E-12  0.1700E-12  0.1640E-12
  0.1000E+15  0.7100E-21  0.5910E-18  0.1130E-15  0.4970E-14  0.2820E-13  0.7090E-13  0.9340E-13  0.1020E-12  0.1060E-12  0.1090E-12  0.1100E-12  0.1060E-12  0.9660E-13  0.9010E-13
  0.1000E+16  0.6400E-21  0.5250E-18  0.9940E-16  0.4350E-14  0.2550E-13  0.6610E-13  0.8780E-13  0.9590E-13  0.9980E-13  0.1030E-12  0.1030E-12  0.9840E-13  0.8920E-13  0.8250E-13
  0.1000E+17  0.6320E-21  0.5180E-18  0.9800E-16  0.4290E-14  0.2520E-13  0.6560E-13  0.8720E-13  0.9530E-13  0.9920E-13  0.1020E-12  0.1030E-12  0.9770E-13  0.8850E-13  0.8180E-13
WAVELENGTH(A)= 
    59.654
 7 14 t 
excit   
     9.930     14.900     24.800     49.600     99.300    248.000    496.000    744.000    993.000   1490.000   2480.000   4960.000   9930.000  14900.000 
  0.1000E+11  0.4140E-20  0.4580E-17  0.1140E-14  0.6240E-13  0.4040E-12  0.1090E-11  0.1460E-11  0.1600E-11  0.1670E-11  0.1730E-11  0.1730E-11  0.1650E-11  0.1510E-11  0.1400E-11
  0.1000E+12  0.3740E-20  0.4080E-17  0.1000E-14  0.5400E-13  0.3390E-12  0.8770E-12  0.1150E-11  0.1260E-11  0.1310E-11  0.1350E-11  0.1360E-11  0.1310E-11  0.1220E-11  0.1140E-11
  0.1000E+13  0.2870E-20  0.3010E-17  0.7130E-15  0.3660E-13  0.2090E-12  0.4730E-12  0.5940E-12  0.6390E-12  0.6620E-12  0.6840E-12  0.6940E-12  0.6840E-12  0.6530E-12  0.6250E-12
  0.1000E+14  0.1570E-20  0.1390E-17  0.2810E-15  0.1250E-13  0.6310E-13  0.1380E-12  0.1750E-12  0.1900E-12  0.1970E-12  0.2050E-12  0.2080E-12  0.2060E-12  0.1980E-12  0.1910E-12
  0.1000E+15  0.9350E-21  0.7480E-18  0.1390E-15  0.5950E-14  0.3340E-13  0.8390E-13  0.1100E-12  0.1210E-12  0.1250E-12  0.1290E-12  0.1300E-12  0.1240E-12  0.1140E-12  0.1060E-12
  0.1000E+16  0.8510E-21  0.6710E-18  0.1230E-15  0.5260E-14  0.3040E-13  0.7850E-13  0.1040E-12  0.1140E-12  0.1180E-12  0.1220E-12  0.1220E-12  0.1160E-12  0.1050E-12  0.9750E-13
  0.1000E+17  0.8420E-21  0.6630E-18  0.1220E-15  0.5190E-14  0.3010E-13  0.7800E-13  0.1030E-12  0.1130E-12  0.1170E-12  0.1210E-12  0.1210E-12  0.1150E-12  0.1050E-12  0.9660E-13
WAVELENGTH(A)= 
  1294.770
 7 14 t 
excit   
     9.930     14.900     24.800     49.600     99.300    248.000    496.000    744.000    993.000   1490.000   2480.000   4960.000   9930.000  14900.000 
  0.1000E+11  0.3000E-12  0.3960E-12  0.4930E-12  0.6130E-12  0.9140E-12  0.1470E-11  0.1730E-11  0.1810E-11  0.1840E-11  0.1840E-11  0.1800E-11  0.1670E-11  0.1490E-11  0.1370E-11
  0.1000E+12  0.3480E-12  0.4640E-12  0.5830E-12  0.7330E-12  0.1080E-11  0.1650E-11  0.1880E-11  0.1930E-11  0.1940E-11  0.1920E-11  0.1850E-11  0.1700E-11  0.1500E-11  0.1380E-11
  0.1000E+13  0.4500E-12  0.5850E-12  0.7190E-12  0.8730E-12  0.1150E-11  0.1460E-11  0.1540E-11  0.1550E-11  0.1540E-11  0.1510E-11  0.1460E-11  0.1360E-11  0.1230E-11  0.1140E-11
  0.1000E+14  0.2100E-12  0.2300E-12  0.2390E-12  0.2430E-12  0.2490E-12  0.2530E-12  0.2530E-12  0.2540E-12  0.2550E-12  0.2550E-12  0.2560E-12  0.2580E-12  0.2580E-12  0.2590E-12
  0.1000E+15  0.2740E-13  0.2720E-13  0.2600E-13  0.2470E-13  0.2390E-13  0.2350E-13  0.2340E-13  0.2330E-13  0.2330E-13  0.2340E-13  0.2340E-13  0.2350E-13  0.2360E-13  0.2370E-13
  0.1000E+16  0.2810E-14  0.2750E-14  0.2610E-14  0.2450E-14  0.2360E-14  0.2310E-14  0.2300E-14  0.2300E-14  0.2300E-14  0.2290E-14  0.2300E-14  0.2300E-14  0.2300E-14  0.2300E-14
  0.1000E+17  0.2810E-15  0.2750E-15  0.2610E-15  0.2450E-15  0.2360E-15  0.2310E-15  0.2300E-15  0.2290E-15  0.2290E-15  0.2290E-15  0.2290E-15  0.2290E-15  0.2290E-15  0.2290E-15
WAVELENGTH(A)= 
  1459.150
 7 14 t 
excit   
     9.930     14.900     24.800     49.600     99.300    248.000    496.000    744.000    993.000   1490.000   2480.000   4960.000   9930.000  14900.000 
  0.1000E+11  0.1340E-12  0.1820E-12  0.2300E-12  0.3150E-12  0.6230E-12  0.1240E-11  0.1560E-11  0.1670E-11  0.1710E-11  0.1740E-11  0.1730E-11  0.1630E-11  0.1460E-11  0.1350E-11
  0.1000E+12  0.1580E-12  0.2160E-12  0.2760E-12  0.3840E-12  0.7490E-12  0.1420E-11  0.1720E-11  0.1810E-11  0.1850E-11  0.1860E-11  0.1820E-11  0.1690E-11  0.1510E-11  0.1380E-11
  0.1000E+13  0.2420E-12  0.3210E-12  0.4010E-12  0.5190E-12  0.8090E-12  0.1190E-11  0.1320E-11  0.1360E-11  0.1370E-11  0.1370E-11  0.1350E-11  0.1290E-11  0.1190E-11  0.1120E-11
  0.1000E+14  0.1640E-12  0.1820E-12  0.1910E-12  0.1970E-12  0.2090E-12  0.2200E-12  0.2230E-12  0.2250E-12  0.2260E-12  0.2280E-12  0.2290E-12  0.2310E-12  0.2320E-12  0.2320E-12
  0.1000E+15  0.2460E-13  0.2480E-13  0.2400E-13  0.2290E-13  0.2230E-13  0.2200E-13  0.2200E-13  0.2200E-13  0.2210E-13  0.2210E-13  0.2220E-13  0.2220E-13  0.2230E-13  0.2240E-13
  0.1000E+16  0.2570E-14  0.2550E-14  0.2440E-14  0.2310E-14  0.2240E-14  0.2200E-14  0.2190E-14  0.2190E-14  0.2190E-14  0.2190E-14  0.2200E-14  0.2200E-14  0.2200E-14  0.2200E-14
  0.1000E+17  0.2580E-15  0.2560E-15  0.2450E-15  0.2320E-15  0.2240E-15  0.2200E-15  0.2190E-15  0.2190E-15  0.2190E-15  0.2190E-15  0.2190E-15  0.2200E-15  0.2200E-15  0.2200E-15
WAVELENGTH(A)= 
  1525.460
 7 14 t 
excit   
     9.930     14.900     24.800     49.600     99.300    248.000    496.000    744.000    993.000   1490.000   2480.000   4960.000   9930.000  14900.000 
  0.1000E+11  0.6090E-12  0.8050E-12  0.1000E-11  0.1250E-11  0.1860E-11  0.2990E-11  0.3510E-11  0.3670E-11  0.3730E-11  0.3740E-11  0.3660E-11  0.3400E-11  0.3030E-11  0.2780E-11
  0.1000E+12  0.7070E-12  0.9420E-12  0.1180E-11  0.1490E-11  0.2200E-11  0.3360E-11  0.3820E-11  0.3920E-11  0.3940E-11  0.3900E-11  0.3760E-11  0.3450E-11  0.3050E-11  0.2800E-11
  0.1000E+13  0.9140E-12  0.1190E-11  0.1460E-11  0.1770E-11  0.2330E-11  0.2970E-11  0.3130E-11  0.3140E-11  0.3120E-11  0.3070E-11  0.2960E-11  0.2750E-11  0.2490E-11  0.2320E-11
  0.1000E+14  0.4270E-12  0.4680E-12  0.4860E-12  0.4950E-12  0.5070E-12  0.5130E-12  0.5150E-12  0.5160E-12  0.5170E-12  0.5190E-12  0.5210E-12  0.5230E-12  0.5250E-12  0.5250E-12
  0.1000E+15  0.5560E-13  0.5520E-13  0.5290E-13  0.5020E-13  0.4860E-13  0.4770E-13  0.4750E-13  0.4740E-13  0.4740E-13  0.4750E-13  0.4760E-13  0.4770E-13  0.4790E-13  0.4810E-13
  0.1000E+16  0.5700E-14  0.5580E-14  0.5300E-14  0.4980E-14  0.4800E-14  0.4700E-14  0.4670E-14  0.4670E-14  0.4660E-14  0.4660E-14  0.4660E-14  0.4670E-14  0.4670E-14  0.4670E-14
  0.1000E+17  0.5720E-15  0.5590E-15  0.5300E-15  0.4970E-15  0.4790E-15  0.4690E-15  0.4660E-15  0.4660E-15  0.4660E-15  0.4650E-15  0.4650E-15  0.4660E-15  0.4660E-15  0.4660E-15
WAVELENGTH(A)= 
  1672.720
 7 14 t 
excit   
     9.930     14.900     24.800     49.600     99.300    248.000    496.000    744.000    993.000   1490.000   2480.000   4960.000   9930.000  14900.000 
  0.1000E+11  0.4000E-12  0.5090E-12  0.6220E-12  0.7670E-12  0.1130E-11  0.1770E-11  0.2070E-11  0.2150E-11  0.2180E-11  0.2180E-11  0.2130E-11  0.1970E-11  0.1750E-11  0.1610E-11
  0.1000E+12  0.6010E-12  0.7710E-12  0.9530E-12  0.1160E-11  0.1540E-11  0.2100E-11  0.2290E-11  0.2320E-11  0.2310E-11  0.2270E-11  0.2170E-11  0.1990E-11  0.1750E-11  0.1610E-11
  0.1000E+13  0.7060E-12  0.8530E-12  0.9900E-12  0.1120E-11  0.1280E-11  0.1420E-11  0.1440E-11  0.1420E-11  0.1410E-11  0.1380E-11  0.1330E-11  0.1250E-11  0.1150E-11  0.1090E-11
  0.1000E+14  0.1990E-12  0.2020E-12  0.1980E-12  0.1900E-12  0.1820E-12  0.1740E-12  0.1710E-12  0.1710E-12  0.1710E-12  0.1710E-12  0.1720E-12  0.1730E-12  0.1750E-12  0.1770E-12
  0.1000E+15  0.2110E-13  0.1940E-13  0.1760E-13  0.1590E-13  0.1500E-13  0.1450E-13  0.1440E-13  0.1440E-13  0.1440E-13  0.1440E-13  0.1440E-13  0.1440E-13  0.1450E-13  0.1460E-13
  0.1000E+16  0.2100E-14  0.1910E-14  0.1710E-14  0.1540E-14  0.1460E-14  0.1410E-14  0.1400E-14  0.1400E-14  0.1400E-14  0.1400E-14  0.1400E-14  0.1400E-14  0.1400E-14  0.1400E-14
  0.1000E+17  0.2100E-15  0.1900E-15  0.1700E-15  0.1530E-15  0.1450E-15  0.1410E-15  0.1400E-15  0.1390E-15  0.1390E-15  0.1390E-15  0.1390E-15  0.1390E-15  0.1390E-15  0.1390E-15
WAVELENGTH(A)= 
  1673.860
 7 14 t 
excit   
     9.930     14.900     24.800     49.600     99.300    248.000    496.000    744.000    993.000   1490.000   2480.000   4960.000   9930.000  14900.000 
  0.1000E+11  0.7950E-12  0.1040E-11  0.1290E-11  0.1870E-11  0.4230E-11  0.9020E-11  0.1160E-10  0.1250E-10  0.1290E-10  0.1310E-10  0.1310E-10  0.1240E-10  0.1120E-10  0.1030E-10
  0.1000E+12  0.8930E-12  0.1180E-11  0.1490E-11  0.2140E-11  0.4640E-11  0.9300E-11  0.1150E-10  0.1230E-10  0.1260E-10  0.1270E-10  0.1260E-10  0.1180E-10  0.1070E-10  0.9900E-11
  0.1000E+13  0.1240E-11  0.1590E-11  0.1940E-11  0.2520E-11  0.4140E-11  0.6230E-11  0.6990E-11  0.7220E-11  0.7320E-11  0.7390E-11  0.7360E-11  0.7150E-11  0.6770E-11  0.6470E-11
  0.1000E+14  0.7430E-12  0.7700E-12  0.7650E-12  0.7600E-12  0.7980E-12  0.8290E-12  0.8420E-12  0.8500E-12  0.8560E-12  0.8660E-12  0.8780E-12  0.8960E-12  0.9170E-12  0.9300E-12
  0.1000E+15  0.1030E-12  0.9540E-13  0.8640E-13  0.7860E-13  0.7510E-13  0.7360E-13  0.7350E-13  0.7350E-13  0.7370E-13  0.7390E-13  0.7410E-13  0.7460E-13  0.7510E-13  0.7550E-13
  0.1000E+16  0.1060E-13  0.9690E-14  0.8680E-14  0.7810E-14  0.7400E-14  0.7220E-14  0.7190E-14  0.7190E-14  0.7200E-14  0.7210E-14  0.7220E-14  0.7230E-14  0.7240E-14  0.7250E-14
  0.1000E+17  0.1070E-14  0.9710E-15  0.8680E-15  0.7810E-15  0.7390E-15  0.7200E-15  0.7180E-15  0.7170E-15  0.7180E-15  0.7190E-15  0.7200E-15  0.7200E-15  0.7220E-15  0.7220E-15
WAVELENGTH(A)= 
  1685.290
 7 14 t 
excit   
     9.930     14.900     24.800     49.600     99.300    248.000    496.000    744.000    993.000   1490.000   2480.000   4960.000   9930.000  14900.000 
  0.1000E+11  0.1900E-11  0.2380E-11  0.2830E-11  0.3440E-11  0.4960E-11  0.7750E-11  0.9060E-11  0.9450E-11  0.9600E-11  0.9610E-11  0.9400E-11  0.8730E-11  0.7790E-11  0.7160E-11
  0.1000E+12  0.1850E-11  0.2300E-11  0.2740E-11  0.3340E-11  0.4890E-11  0.7560E-11  0.8710E-11  0.9020E-11  0.9130E-11  0.9100E-11  0.8880E-11  0.8250E-11  0.7390E-11  0.6820E-11
  0.1000E+13  0.1570E-11  0.1900E-11  0.2200E-11  0.2590E-11  0.3460E-11  0.4530E-11  0.4880E-11  0.4970E-11  0.5010E-11  0.5000E-11  0.4950E-11  0.4780E-11  0.4500E-11  0.4300E-11
  0.1000E+14  0.5640E-12  0.5740E-12  0.5620E-12  0.5480E-12  0.5550E-12  0.5610E-12  0.5650E-12  0.5690E-12  0.5720E-12  0.5770E-12  0.5850E-12  0.5960E-12  0.6080E-12  0.6160E-12
  0.1000E+15  0.7030E-13  0.6480E-13  0.5850E-13  0.5310E-13  0.5040E-13  0.4910E-13  0.4890E-13  0.4890E-13  0.4890E-13  0.4900E-13  0.4920E-13  0.4950E-13  0.4980E-13  0.5000E-13
  0.1000E+16  0.7180E-14  0.6520E-14  0.5830E-14  0.5240E-14  0.4950E-14  0.4810E-14  0.4780E-14  0.4780E-14  0.4780E-14  0.4780E-14  0.4780E-14  0.4790E-14  0.4800E-14  0.4800E-14
  0.1000E+17  0.7190E-15  0.6530E-15  0.5830E-15  0.5230E-15  0.4940E-15  0.4800E-15  0.4770E-15  0.4770E-15  0.4760E-15  0.4760E-15  0.4770E-15  0.4770E-15  0.4780E-15  0.4780E-15
WAVELENGTH(A)= 
  1751.870
 7 14 t 
excit   
     9.930     14.900     24.800     49.600     99.300    248.000    496.000    744.000    993.000   1490.000   2480.000   4960.000   9930.000  14900.000 
  0.1000E+11  0.1080E-11  0.1390E-11  0.1720E-11  0.2430E-11  0.5160E-11  0.1070E-10  0.1360E-10  0.1460E-10  0.1510E-10  0.1540E-10  0.1530E-10  0.1450E-10  0.1310E-10  0.1210E-10
  0.1000E+12  0.1130E-11  0.1460E-11  0.1810E-11  0.2530E-11  0.5190E-11  0.1010E-10  0.1260E-10  0.1340E-10  0.1370E-10  0.1400E-10  0.1390E-10  0.1310E-10  0.1200E-10  0.1110E-10
  0.1000E+13  0.1150E-11  0.1420E-11  0.1680E-11  0.2110E-11  0.3320E-11  0.4830E-11  0.5410E-11  0.5620E-11  0.5720E-11  0.5820E-11  0.5890E-11  0.5870E-11  0.5720E-11  0.5580E-11
  0.1000E+14  0.4800E-12  0.4840E-12  0.4700E-12  0.4590E-12  0.4740E-12  0.4870E-12  0.4950E-12  0.5000E-12  0.5040E-12  0.5100E-12  0.5190E-12  0.5340E-12  0.5510E-12  0.5620E-12
  0.1000E+15  0.6090E-13  0.5550E-13  0.4970E-13  0.4490E-13  0.4270E-13  0.4190E-13  0.4180E-13  0.4190E-13  0.4200E-13  0.4210E-13  0.4230E-13  0.4260E-13  0.4290E-13  0.4310E-13
  0.1000E+16  0.6210E-14  0.5590E-14  0.4960E-14  0.4440E-14  0.4200E-14  0.4100E-14  0.4080E-14  0.4090E-14  0.4090E-14  0.4100E-14  0.4100E-14  0.4110E-14  0.4120E-14  0.4130E-14
  0.1000E+17  0.6220E-15  0.5600E-15  0.4960E-15  0.4430E-15  0.4190E-15  0.4090E-15  0.4070E-15  0.4080E-15  0.4080E-15  0.4080E-15  0.4090E-15  0.4100E-15  0.4110E-15  0.4110E-15
WAVELENGTH(A)= 
  1797.910
 7 14 t 
excit   
     9.930     14.900     24.800     49.600     99.300    248.000    496.000    744.000    993.000   1490.000   2480.000   4960.000   9930.000  14900.000 
  0.1000E+11  0.1150E-11  0.1500E-11  0.1880E-11  0.2800E-11  0.6510E-11  0.1400E-10  0.1800E-10  0.1940E-10  0.2010E-10  0.2050E-10  0.2050E-10  0.1940E-10  0.1750E-10  0.1620E-10
  0.1000E+12  0.1250E-11  0.1620E-11  0.2030E-11  0.2960E-11  0.6480E-11  0.1300E-10  0.1630E-10  0.1740E-10  0.1790E-10  0.1830E-10  0.1820E-10  0.1740E-10  0.1580E-10  0.1480E-10
  0.1000E+13  0.1170E-11  0.1400E-11  0.1620E-11  0.2050E-11  0.3320E-11  0.4930E-11  0.5600E-11  0.5870E-11  0.6020E-11  0.6190E-11  0.6350E-11  0.6450E-11  0.6420E-11  0.6350E-11
  0.1000E+14  0.4330E-12  0.4290E-12  0.4120E-12  0.4000E-12  0.4160E-12  0.4310E-12  0.4410E-12  0.4470E-12  0.4520E-12  0.4600E-12  0.4700E-12  0.4870E-12  0.5070E-12  0.5200E-12
  0.1000E+15  0.5490E-13  0.4970E-13  0.4430E-13  0.3980E-13  0.3790E-13  0.3720E-13  0.3720E-13  0.3730E-13  0.3740E-13  0.3760E-13  0.3780E-13  0.3810E-13  0.3850E-13  0.3870E-13
  0.1000E+16  0.5610E-14  0.5020E-14  0.4430E-14  0.3950E-14  0.3730E-14  0.3640E-14  0.3640E-14  0.3640E-14  0.3650E-14  0.3660E-14  0.3670E-14  0.3680E-14  0.3700E-14  0.3700E-14
  0.1000E+17  0.5630E-15  0.5030E-15  0.4430E-15  0.3950E-15  0.3720E-15  0.3640E-15  0.3630E-15  0.3630E-15  0.3640E-15  0.3650E-15  0.3660E-15  0.3670E-15  0.3680E-15  0.3680E-15
WAVELENGTH(A)= 
  1941.900
 7 14 t 
excit   
     9.930     14.900     24.800     49.600     99.300    248.000    496.000    744.000    993.000   1490.000   2480.000   4960.000   9930.000  14900.000 
  0.1000E+11  0.3890E-12  0.5250E-12  0.6780E-12  0.8560E-12  0.1150E-11  0.1580E-11  0.1700E-11  0.1700E-11  0.1680E-11  0.1630E-11  0.1540E-11  0.1380E-11  0.1190E-11  0.1080E-11
  0.1000E+12  0.1830E-11  0.2360E-11  0.2930E-11  0.3450E-11  0.3760E-11  0.3730E-11  0.3380E-11  0.3130E-11  0.2940E-11  0.2690E-11  0.2380E-11  0.1980E-11  0.1630E-11  0.1440E-11
  0.1000E+13  0.2170E-11  0.2540E-11  0.2850E-11  0.3030E-11  0.2800E-11  0.2330E-11  0.2050E-11  0.1910E-11  0.1820E-11  0.1710E-11  0.1570E-11  0.1400E-11  0.1240E-11  0.1150E-11
  0.1000E+14  0.2860E-12  0.2860E-12  0.2760E-12  0.2570E-12  0.2210E-12  0.1890E-12  0.1790E-12  0.1760E-12  0.1750E-12  0.1740E-12  0.1730E-12  0.1740E-12  0.1750E-12  0.1770E-12
  0.1000E+15  0.1990E-13  0.1850E-13  0.1680E-13  0.1530E-13  0.1430E-13  0.1360E-13  0.1340E-13  0.1330E-13  0.1330E-13  0.1320E-13  0.1320E-13  0.1330E-13  0.1330E-13  0.1340E-13
  0.1000E+16  0.1840E-14  0.1700E-14  0.1540E-14  0.1400E-14  0.1330E-14  0.1290E-14  0.1280E-14  0.1270E-14  0.1270E-14  0.1270E-14  0.1270E-14  0.1260E-14  0.1260E-14  0.1260E-14
  0.1000E+17  0.1830E-15  0.1680E-15  0.1520E-15  0.1380E-15  0.1320E-15  0.1280E-15  0.1270E-15  0.1270E-15  0.1260E-15  0.1260E-15  0.1260E-15  0.1260E-15  0.1260E-15  0.1260E-15
WAVELENGTH(A)= 
  1946.890
 7 14 t 
excit   
     9.930     14.900     24.800     49.600     99.300    248.000    496.000    744.000    993.000   1490.000   2480.000   4960.000   9930.000  14900.000 
  0.1000E+11  0.3860E-12  0.5310E-12  0.6980E-12  0.9180E-12  0.1390E-11  0.2170E-11  0.2480E-11  0.2550E-11  0.2570E-11  0.2540E-11  0.2450E-11  0.2240E-11  0.1980E-11  0.1810E-11
  0.1000E+12  0.1650E-11  0.2180E-11  0.2780E-11  0.3370E-11  0.3890E-11  0.4240E-11  0.4110E-11  0.3930E-11  0.3790E-11  0.3570E-11  0.3270E-11  0.2850E-11  0.2420E-11  0.2180E-11
  0.1000E+13  0.1930E-11  0.2290E-11  0.2610E-11  0.2810E-11  0.2700E-11  0.2390E-11  0.2200E-11  0.2110E-11  0.2040E-11  0.1960E-11  0.1850E-11  0.1710E-11  0.1560E-11  0.1470E-11
  0.1000E+14  0.2700E-12  0.2700E-12  0.2600E-12  0.2440E-12  0.2160E-12  0.1910E-12  0.1840E-12  0.1820E-12  0.1820E-12  0.1810E-12  0.1820E-12  0.1840E-12  0.1870E-12  0.1890E-12
  0.1000E+15  0.2100E-13  0.1950E-13  0.1780E-13  0.1620E-13  0.1510E-13  0.1450E-13  0.1430E-13  0.1420E-13  0.1420E-13  0.1420E-13  0.1420E-13  0.1420E-13  0.1430E-13  0.1440E-13
  0.1000E+16  0.2000E-14  0.1850E-14  0.1670E-14  0.1520E-14  0.1440E-14  0.1390E-14  0.1380E-14  0.1370E-14  0.1370E-14  0.1370E-14  0.1370E-14  0.1370E-14  0.1370E-14  0.1370E-14
  0.1000E+17  0.1990E-15  0.1830E-15  0.1660E-15  0.1500E-15  0.1430E-15  0.1390E-15  0.1370E-15  0.1370E-15  0.1370E-15  0.1360E-15  0.1360E-15  0.1360E-15  0.1360E-15  0.1360E-15
WAVELENGTH(A)= 
  1983.850
 7 14 t 
excit   
     9.930     14.900     24.800     49.600     99.300    248.000    496.000    744.000    993.000   1490.000   2480.000   4960.000   9930.000  14900.000 
  0.1000E+11  0.2750E-12  0.3740E-12  0.4850E-12  0.6280E-12  0.9380E-12  0.1460E-11  0.1660E-11  0.1710E-11  0.1720E-11  0.1710E-11  0.1650E-11  0.1510E-11  0.1330E-11  0.1220E-11
  0.1000E+12  0.1140E-11  0.1480E-11  0.1840E-11  0.2190E-11  0.2480E-11  0.2670E-11  0.2570E-11  0.2460E-11  0.2370E-11  0.2240E-11  0.2060E-11  0.1800E-11  0.1550E-11  0.1400E-11
  0.1000E+13  0.1080E-11  0.1240E-11  0.1360E-11  0.1420E-11  0.1320E-11  0.1120E-11  0.1020E-11  0.9750E-12  0.9450E-12  0.9080E-12  0.8660E-12  0.8130E-12  0.7590E-12  0.7260E-12
  0.1000E+14  0.1170E-12  0.1150E-12  0.1090E-12  0.1000E-12  0.8850E-13  0.7820E-13  0.7520E-13  0.7430E-13  0.7400E-13  0.7370E-13  0.7380E-13  0.7440E-13  0.7550E-13  0.7640E-13
  0.1000E+15  0.8900E-14  0.8230E-14  0.7450E-14  0.6750E-14  0.6310E-14  0.6030E-14  0.5950E-14  0.5920E-14  0.5910E-14  0.5900E-14  0.5900E-14  0.5910E-14  0.5940E-14  0.5960E-14
  0.1000E+16  0.8480E-15  0.7790E-15  0.7020E-15  0.6360E-15  0.6020E-15  0.5820E-15  0.5760E-15  0.5740E-15  0.5730E-15  0.5720E-15  0.5710E-15  0.5700E-15  0.5700E-15  0.5700E-15
  0.1000E+17  0.8440E-16  0.7750E-16  0.6980E-16  0.6320E-16  0.5990E-16  0.5800E-16  0.5740E-16  0.5720E-16  0.5710E-16  0.5700E-16  0.5690E-16  0.5680E-16  0.5680E-16  0.5680E-16
WAVELENGTH(A)= 
  2078.870
 7 14 t 
excit   
     9.930     14.900     24.800     49.600     99.300    248.000    496.000    744.000    993.000   1490.000   2480.000   4960.000   9930.000  14900.000 
  0.1000E+11  0.7820E-12  0.9950E-12  0.1220E-11  0.1500E-11  0.2200E-11  0.3460E-11  0.4040E-11  0.4210E-11  0.4260E-11  0.4260E-11  0.4160E-11  0.3850E-11  0.3430E-11  0.3150E-11
  0.1000E+12  0.1170E-11  0.1510E-11  0.1860E-11  0.2270E-11  0.3010E-11  0.4100E-11  0.4470E-11  0.4530E-11  0.4510E-11  0.4430E-11  0.4250E-11  0.3880E-11  0.3430E-11  0.3150E-11
  0.1000E+13  0.1380E-11  0.1670E-11  0.1940E-11  0.2190E-11  0.2500E-11  0.2780E-11  0.2810E-11  0.2780E-11  0.2750E-11  0.2690E-11  0.2600E-11  0.2450E-11  0.2250E-11  0.2130E-11
  0.1000E+14  0.3900E-12  0.3940E-12  0.3860E-12  0.3710E-12  0.3560E-12  0.3390E-12  0.3350E-12  0.3340E-12  0.3340E-12  0.3340E-12  0.3350E-12  0.3380E-12  0.3420E-12  0.3450E-12
  0.1000E+15  0.4120E-13  0.3800E-13  0.3430E-13  0.3110E-13  0.2940E-13  0.2840E-13  0.2810E-13  0.2810E-13  0.2810E-13  0.2810E-13  0.2810E-13  0.2820E-13  0.2830E-13  0.2850E-13
  0.1000E+16  0.4100E-14  0.3730E-14  0.3340E-14  0.3010E-14  0.2850E-14  0.2760E-14  0.2740E-14  0.2730E-14  0.2730E-14  0.2730E-14  0.2730E-14  0.2730E-14  0.2730E-14  0.2730E-14
  0.1000E+17  0.4090E-15  0.3720E-15  0.3330E-15  0.3000E-15  0.2840E-15  0.2750E-15  0.2730E-15  0.2730E-15  0.2720E-15  0.2720E-15  0.2720E-15  0.2720E-15  0.2720E-15  0.2720E-15
WAVELENGTH(A)= 
  2084.110
 7 14 t 
excit   
     9.930     14.900     24.800     49.600     99.300    248.000    496.000    744.000    993.000   1490.000   2480.000   4960.000   9930.000  14900.000 
  0.1000E+11  0.2940E-11  0.3710E-11  0.4510E-11  0.5660E-11  0.8760E-11  0.1450E-10  0.1730E-10  0.1820E-10  0.1850E-10  0.1860E-10  0.1820E-10  0.1700E-10  0.1520E-10  0.1400E-10
  0.1000E+12  0.3840E-11  0.4880E-11  0.5980E-11  0.7420E-11  0.1070E-10  0.1590E-10  0.1800E-10  0.1860E-10  0.1870E-10  0.1860E-10  0.1800E-10  0.1670E-10  0.1490E-10  0.1370E-10
  0.1000E+13  0.4180E-11  0.5000E-11  0.5740E-11  0.6560E-11  0.7950E-11  0.9410E-11  0.9770E-11  0.9820E-11  0.9810E-11  0.9730E-11  0.9560E-11  0.9180E-11  0.8650E-11  0.8270E-11
  0.1000E+14  0.1220E-11  0.1190E-11  0.1120E-11  0.1060E-11  0.1020E-11  0.9810E-12  0.9710E-12  0.9720E-12  0.9740E-12  0.9800E-12  0.9900E-12  0.1010E-11  0.1030E-11  0.1050E-11
  0.1000E+15  0.1310E-12  0.1150E-12  0.1000E-12  0.8810E-13  0.8230E-13  0.7920E-13  0.7840E-13  0.7830E-13  0.7830E-13  0.7840E-13  0.7860E-13  0.7890E-13  0.7950E-13  0.7990E-13
  0.1000E+16  0.1300E-13  0.1130E-13  0.9740E-14  0.8510E-14  0.7950E-14  0.7670E-14  0.7600E-14  0.7590E-14  0.7580E-14  0.7580E-14  0.7580E-14  0.7580E-14  0.7590E-14  0.7600E-14
  0.1000E+17  0.1300E-14  0.1130E-14  0.9710E-15  0.8480E-15  0.7920E-15  0.7640E-15  0.7570E-15  0.7560E-15  0.7560E-15  0.7550E-15  0.7550E-15  0.7550E-15  0.7560E-15  0.7560E-15
WAVELENGTH(A)= 
  2098.330
 7 14 t 
excit   
     9.930     14.900     24.800     49.600     99.300    248.000    496.000    744.000    993.000   1490.000   2480.000   4960.000   9930.000  14900.000 
  0.1000E+11  0.6030E-12  0.7520E-12  0.8980E-12  0.1090E-11  0.1570E-11  0.2460E-11  0.2870E-11  0.2990E-11  0.3040E-11  0.3040E-11  0.2980E-11  0.2770E-11  0.2470E-11  0.2270E-11
  0.1000E+12  0.5850E-12  0.7280E-12  0.8680E-12  0.1060E-11  0.1550E-11  0.2390E-11  0.2760E-11  0.2860E-11  0.2890E-11  0.2880E-11  0.2810E-11  0.2610E-11  0.2340E-11  0.2160E-11
  0.1000E+13  0.4960E-12  0.6010E-12  0.6970E-12  0.8210E-12  0.1100E-11  0.1430E-11  0.1550E-11  0.1580E-11  0.1590E-11  0.1590E-11  0.1570E-11  0.1510E-11  0.1430E-11  0.1360E-11
  0.1000E+14  0.1790E-12  0.1820E-12  0.1780E-12  0.1740E-12  0.1760E-12  0.1780E-12  0.1790E-12  0.1800E-12  0.1810E-12  0.1830E-12  0.1850E-12  0.1890E-12  0.1930E-12  0.1950E-12
  0.1000E+15  0.2230E-13  0.2050E-13  0.1850E-13  0.1680E-13  0.1600E-13  0.1560E-13  0.1550E-13  0.1550E-13  0.1550E-13  0.1550E-13  0.1560E-13  0.1570E-13  0.1580E-13  0.1580E-13
  0.1000E+16  0.2270E-14  0.2070E-14  0.1850E-14  0.1660E-14  0.1570E-14  0.1520E-14  0.1510E-14  0.1510E-14  0.1510E-14  0.1510E-14  0.1510E-14  0.1520E-14  0.1520E-14  0.1520E-14
  0.1000E+17  0.2280E-15  0.2070E-15  0.1850E-15  0.1660E-15  0.1570E-15  0.1520E-15  0.1510E-15  0.1510E-15  0.1510E-15  0.1510E-15  0.1510E-15  0.1510E-15  0.1510E-15  0.1510E-15
WAVELENGTH(A)= 
  2162.440
 7 14 t 
excit   
     9.930     14.900     24.800     49.600     99.300    248.000    496.000    744.000    993.000   1490.000   2480.000   4960.000   9930.000  14900.000 
  0.1000E+11  0.2080E-13  0.2930E-13  0.3920E-13  0.8930E-13  0.3620E-12  0.1020E-11  0.1420E-11  0.1580E-11  0.1650E-11  0.1710E-11  0.1720E-11  0.1620E-11  0.1430E-11  0.1310E-11
  0.1000E+12  0.3860E-13  0.5580E-13  0.7650E-13  0.1520E-12  0.5780E-12  0.1800E-11  0.2640E-11  0.3000E-11  0.3190E-11  0.3350E-11  0.3400E-11  0.3220E-11  0.2860E-11  0.2590E-11
  0.1000E+13  0.1210E-12  0.1650E-12  0.2120E-12  0.3150E-12  0.7420E-12  0.1640E-11  0.2180E-11  0.2420E-11  0.2560E-11  0.2720E-11  0.2850E-11  0.2910E-11  0.2850E-11  0.2770E-11
  0.1000E+14  0.2030E-12  0.2340E-12  0.2520E-12  0.2680E-12  0.3070E-12  0.3580E-12  0.3830E-12  0.3950E-12  0.4030E-12  0.4130E-12  0.4240E-12  0.4380E-12  0.4490E-12  0.4550E-12
  0.1000E+15  0.4010E-13  0.4190E-13  0.4180E-13  0.4080E-13  0.4050E-13  0.4080E-13  0.4130E-13  0.4170E-13  0.4190E-13  0.4230E-13  0.4260E-13  0.4310E-13  0.4340E-13  0.4370E-13
  0.1000E+16  0.4330E-14  0.4460E-14  0.4410E-14  0.4270E-14  0.4170E-14  0.4140E-14  0.4170E-14  0.4190E-14  0.4210E-14  0.4230E-14  0.4260E-14  0.4290E-14  0.4310E-14  0.4330E-14
  0.1000E+17  0.4360E-15  0.4490E-15  0.4430E-15  0.4290E-15  0.4180E-15  0.4150E-15  0.4170E-15  0.4190E-15  0.4210E-15  0.4230E-15  0.4260E-15  0.4290E-15  0.4310E-15  0.4320E-15
WAVELENGTH(A)= 
  2308.140
 7 14 t 
excit   
     9.930     14.900     24.800     49.600     99.300    248.000    496.000    744.000    993.000   1490.000   2480.000   4960.000   9930.000  14900.000 
  0.1000E+11  0.3250E-11  0.4150E-11  0.5150E-11  0.7220E-11  0.1450E-10  0.2880E-10  0.3640E-10  0.3910E-10  0.4040E-10  0.4130E-10  0.4120E-10  0.3920E-10  0.3570E-10  0.3320E-10
  0.1000E+12  0.2360E-11  0.2870E-11  0.3410E-11  0.4540E-11  0.8530E-11  0.1550E-10  0.1900E-10  0.2040E-10  0.2120E-10  0.2190E-10  0.2240E-10  0.2230E-10  0.2140E-10  0.2060E-10
  0.1000E+13  0.7440E-12  0.8160E-12  0.8790E-12  0.1030E-11  0.1530E-11  0.2150E-11  0.2450E-11  0.2590E-11  0.2680E-11  0.2800E-11  0.2940E-11  0.3130E-11  0.3300E-11  0.3390E-11
  0.1000E+14  0.1530E-12  0.1440E-12  0.1320E-12  0.1240E-12  0.1260E-12  0.1290E-12  0.1320E-12  0.1350E-12  0.1360E-12  0.1390E-12  0.1430E-12  0.1500E-12  0.1580E-12  0.1640E-12
  0.1000E+15  0.1780E-13  0.1530E-13  0.1310E-13  0.1140E-13  0.1070E-13  0.1050E-13  0.1050E-13  0.1050E-13  0.1060E-13  0.1060E-13  0.1070E-13  0.1080E-13  0.1090E-13  0.1100E-13
  0.1000E+16  0.1800E-14  0.1530E-14  0.1300E-14  0.1120E-14  0.1050E-14  0.1020E-14  0.1020E-14  0.1020E-14  0.1020E-14  0.1030E-14  0.1030E-14  0.1030E-14  0.1040E-14  0.1040E-14
  0.1000E+17  0.1800E-15  0.1530E-15  0.1290E-15  0.1120E-15  0.1040E-15  0.1020E-15  0.1010E-15  0.1020E-15  0.1020E-15  0.1020E-15  0.1030E-15  0.1030E-15  0.1030E-15  0.1030E-15
WAVELENGTH(A)= 
  2754.670
 7 14 t 
excit   
     9.930     14.900     24.800     49.600     99.300    248.000    496.000    744.000    993.000   1490.000   2480.000   4960.000   9930.000  14900.000 
  0.1000E+11  0.7670E-12  0.9680E-12  0.1180E-11  0.1480E-11  0.2290E-11  0.3800E-11  0.4520E-11  0.4750E-11  0.4840E-11  0.4860E-11  0.4770E-11  0.4440E-11  0.3960E-11  0.3650E-11
  0.1000E+12  0.1000E-11  0.1270E-11  0.1560E-11  0.1940E-11  0.2780E-11  0.4160E-11  0.4710E-11  0.4850E-11  0.4890E-11  0.4850E-11  0.4710E-11  0.4360E-11  0.3890E-11  0.3580E-11
  0.1000E+13  0.1090E-11  0.1310E-11  0.1500E-11  0.1710E-11  0.2080E-11  0.2460E-11  0.2550E-11  0.2560E-11  0.2560E-11  0.2540E-11  0.2500E-11  0.2400E-11  0.2260E-11  0.2160E-11
  0.1000E+14  0.3180E-12  0.3100E-12  0.2940E-12  0.2770E-12  0.2660E-12  0.2560E-12  0.2540E-12  0.2540E-12  0.2540E-12  0.2560E-12  0.2580E-12  0.2630E-12  0.2700E-12  0.2740E-12
  0.1000E+15  0.3420E-13  0.3000E-13  0.2610E-13  0.2300E-13  0.2150E-13  0.2070E-13  0.2050E-13  0.2050E-13  0.2050E-13  0.2050E-13  0.2050E-13  0.2060E-13  0.2080E-13  0.2090E-13
  0.1000E+16  0.3410E-14  0.2950E-14  0.2540E-14  0.2220E-14  0.2080E-14  0.2000E-14  0.1980E-14  0.1980E-14  0.1980E-14  0.1980E-14  0.1980E-14  0.1980E-14  0.1980E-14  0.1980E-14
  0.1000E+17  0.3410E-15  0.2950E-15  0.2540E-15  0.2220E-15  0.2070E-15  0.2000E-15  0.1980E-15  0.1970E-15  0.1970E-15  0.1970E-15  0.1970E-15  0.1970E-15  0.1970E-15  0.1970E-15
WAVELENGTH(A)= 
  3554.800
 7 14 t 
excit   
     9.930     14.900     24.800     49.600     99.300    248.000    496.000    744.000    993.000   1490.000   2480.000   4960.000   9930.000  14900.000 
  0.1000E+11  0.7750E-13  0.1050E-12  0.1350E-12  0.2120E-12  0.5290E-12  0.1170E-11  0.1520E-11  0.1640E-11  0.1700E-11  0.1740E-11  0.1740E-11  0.1640E-11  0.1480E-11  0.1370E-11
  0.1000E+12  0.9170E-13  0.1250E-12  0.1630E-12  0.2500E-12  0.5850E-12  0.1230E-11  0.1550E-11  0.1660E-11  0.1710E-11  0.1740E-11  0.1720E-11  0.1620E-11  0.1460E-11  0.1350E-11
  0.1000E+13  0.1460E-12  0.1920E-12  0.2410E-12  0.3280E-12  0.5830E-12  0.9520E-12  0.1100E-11  0.1160E-11  0.1180E-11  0.1200E-11  0.1200E-11  0.1160E-11  0.1080E-11  0.1030E-11
  0.1000E+14  0.1400E-12  0.1520E-12  0.1570E-12  0.1620E-12  0.1770E-12  0.1920E-12  0.1980E-12  0.2010E-12  0.2030E-12  0.2050E-12  0.2070E-12  0.2090E-12  0.2110E-12  0.2110E-12
  0.1000E+15  0.2450E-13  0.2380E-13  0.2240E-13  0.2100E-13  0.2050E-13  0.2040E-13  0.2050E-13  0.2060E-13  0.2060E-13  0.2070E-13  0.2080E-13  0.2090E-13  0.2100E-13  0.2100E-13
  0.1000E+16  0.2610E-14  0.2500E-14  0.2320E-14  0.2150E-14  0.2070E-14  0.2050E-14  0.2050E-14  0.2060E-14  0.2060E-14  0.2070E-14  0.2070E-14  0.2080E-14  0.2080E-14  0.2090E-14
  0.1000E+17  0.2630E-15  0.2510E-15  0.2330E-15  0.2160E-15  0.2080E-15  0.2050E-15  0.2050E-15  0.2060E-15  0.2060E-15  0.2070E-15  0.2070E-15  0.2080E-15  0.2080E-15  0.2080E-15
WAVELENGTH(A)= 
  6314.730
 7 14 t 
excit   
     9.930     14.900     24.800     49.600     99.300    248.000    496.000    744.000    993.000   1490.000   2480.000   4960.000   9930.000  14900.000 
  0.1000E+11  0.7890E-13  0.1070E-12  0.1380E-12  0.2160E-12  0.5380E-12  0.1190E-11  0.1540E-11  0.1670E-11  0.1730E-11  0.1770E-11  0.1770E-11  0.1670E-11  0.1510E-11  0.1400E-11
  0.1000E+12  0.9330E-13  0.1270E-12  0.1660E-12  0.2540E-12  0.5960E-12  0.1250E-11  0.1580E-11  0.1690E-11  0.1740E-11  0.1770E-11  0.1750E-11  0.1650E-11  0.1490E-11  0.1370E-11
  0.1000E+13  0.1480E-12  0.1950E-12  0.2450E-12  0.3330E-12  0.5930E-12  0.9680E-12  0.1120E-11  0.1180E-11  0.1200E-11  0.1220E-11  0.1220E-11  0.1180E-11  0.1100E-11  0.1050E-11
  0.1000E+14  0.1420E-12  0.1540E-12  0.1600E-12  0.1640E-12  0.1800E-12  0.1950E-12  0.2020E-12  0.2050E-12  0.2070E-12  0.2090E-12  0.2110E-12  0.2130E-12  0.2140E-12  0.2150E-12
  0.1000E+15  0.2490E-13  0.2420E-13  0.2280E-13  0.2140E-13  0.2080E-13  0.2080E-13  0.2090E-13  0.2090E-13  0.2100E-13  0.2110E-13  0.2120E-13  0.2130E-13  0.2130E-13  0.2140E-13
  0.1000E+16  0.2660E-14  0.2540E-14  0.2360E-14  0.2190E-14  0.2110E-14  0.2080E-14  0.2090E-14  0.2090E-14  0.2100E-14  0.2100E-14  0.2110E-14  0.2110E-14  0.2120E-14  0.2120E-14
  0.1000E+17  0.2670E-15  0.2550E-15  0.2370E-15  0.2200E-15  0.2110E-15  0.2090E-15  0.2090E-15  0.2090E-15  0.2100E-15  0.2100E-15  0.2110E-15  0.2110E-15  0.2120E-15  0.2120E-15
WAVELENGTH(A)= 
  6957.010
 7 14 t 
excit   
     9.930     14.900     24.800     49.600     99.300    248.000    496.000    744.000    993.000   1490.000   2480.000   4960.000   9930.000  14900.000 
  0.1000E+11  0.1460E-12  0.1970E-12  0.2540E-12  0.3990E-12  0.9930E-12  0.2200E-11  0.2850E-11  0.3090E-11  0.3190E-11  0.3270E-11  0.3260E-11  0.3090E-11  0.2790E-11  0.2580E-11
  0.1000E+12  0.1720E-12  0.2350E-12  0.3060E-12  0.4700E-12  0.1100E-11  0.2310E-11  0.2920E-11  0.3130E-11  0.3220E-11  0.3270E-11  0.3240E-11  0.3050E-11  0.2740E-11  0.2530E-11
  0.1000E+13  0.2730E-12  0.3600E-12  0.4520E-12  0.6150E-12  0.1090E-11  0.1790E-11  0.2070E-11  0.2170E-11  0.2220E-11  0.2250E-11  0.2240E-11  0.2170E-11  0.2040E-11  0.1930E-11
  0.1000E+14  0.2620E-12  0.2850E-12  0.2950E-12  0.3030E-12  0.3320E-12  0.3610E-12  0.3730E-12  0.3780E-12  0.3810E-12  0.3850E-12  0.3890E-12  0.3930E-12  0.3960E-12  0.3960E-12
  0.1000E+15  0.4600E-13  0.4470E-13  0.4210E-13  0.3940E-13  0.3840E-13  0.3830E-13  0.3850E-13  0.3860E-13  0.3870E-13  0.3890E-13  0.3910E-13  0.3920E-13  0.3940E-13  0.3950E-13
  0.1000E+16  0.4900E-14  0.4690E-14  0.4360E-14  0.4050E-14  0.3900E-14  0.3850E-14  0.3860E-14  0.3860E-14  0.3870E-14  0.3880E-14  0.3890E-14  0.3900E-14  0.3910E-14  0.3920E-14
  0.1000E+17  0.4930E-15  0.4710E-15  0.4380E-15  0.4060E-15  0.3900E-15  0.3850E-15  0.3860E-15  0.3860E-15  0.3870E-15  0.3880E-15  0.3890E-15  0.3900E-15  0.3910E-15  0.3910E-15
WAVELENGTH(A)= 
  7269.030
 7 14 t 
excit   
     9.930     14.900     24.800     49.600     99.300    248.000    496.000    744.000    993.000   1490.000   2480.000   4960.000   9930.000  14900.000 
  0.1000E+11  0.3520E-12  0.4550E-12  0.5620E-12  0.7920E-12  0.1680E-11  0.3480E-11  0.4430E-11  0.4760E-11  0.4920E-11  0.5020E-11  0.4990E-11  0.4720E-11  0.4260E-11  0.3940E-11
  0.1000E+12  0.3670E-12  0.4760E-12  0.5900E-12  0.8250E-12  0.1700E-11  0.3310E-11  0.4100E-11  0.4370E-11  0.4480E-11  0.4550E-11  0.4530E-11  0.4290E-11  0.3900E-11  0.3630E-11
  0.1000E+13  0.3770E-12  0.4650E-12  0.5470E-12  0.6880E-12  0.1080E-11  0.1580E-11  0.1770E-11  0.1830E-11  0.1870E-11  0.1900E-11  0.1920E-11  0.1920E-11  0.1870E-11  0.1820E-11
  0.1000E+14  0.1570E-12  0.1580E-12  0.1530E-12  0.1500E-12  0.1550E-12  0.1590E-12  0.1610E-12  0.1630E-12  0.1640E-12  0.1670E-12  0.1690E-12  0.1740E-12  0.1800E-12  0.1840E-12
  0.1000E+15  0.1990E-13  0.1810E-13  0.1620E-13  0.1460E-13  0.1390E-13  0.1370E-13  0.1360E-13  0.1370E-13  0.1370E-13  0.1370E-13  0.1380E-13  0.1390E-13  0.1400E-13  0.1410E-13
  0.1000E+16  0.2030E-14  0.1830E-14  0.1620E-14  0.1450E-14  0.1370E-14  0.1340E-14  0.1330E-14  0.1330E-14  0.1340E-14  0.1340E-14  0.1340E-14  0.1340E-14  0.1350E-14  0.1350E-14
  0.1000E+17  0.2030E-15  0.1830E-15  0.1620E-15  0.1450E-15  0.1370E-15  0.1330E-15  0.1330E-15  0.1330E-15  0.1330E-15  0.1330E-15  0.1340E-15  0.1340E-15  0.1340E-15  0.1340E-15
WAVELENGTH(A)= 
  8133.390
 7 14 t 
excit   
     9.930     14.900     24.800     49.600     99.300    248.000    496.000    744.000    993.000   1490.000   2480.000   4960.000   9930.000  14900.000 
  0.1000E+11  0.7910E-12  0.1030E-11  0.1290E-11  0.1920E-11  0.4460E-11  0.9600E-11  0.1230E-10  0.1330E-10  0.1380E-10  0.1410E-10  0.1400E-10  0.1330E-10  0.1200E-10  0.1110E-10
  0.1000E+12  0.8570E-12  0.1110E-11  0.1390E-11  0.2030E-11  0.4440E-11  0.8920E-11  0.1110E-10  0.1190E-10  0.1230E-10  0.1250E-10  0.1250E-10  0.1190E-10  0.1090E-10  0.1010E-10
  0.1000E+13  0.8020E-12  0.9620E-12  0.1110E-11  0.1400E-11  0.2280E-11  0.3380E-11  0.3840E-11  0.4020E-11  0.4130E-11  0.4240E-11  0.4350E-11  0.4420E-11  0.4400E-11  0.4350E-11
  0.1000E+14  0.2960E-12  0.2940E-12  0.2820E-12  0.2740E-12  0.2850E-12  0.2950E-12  0.3020E-12  0.3060E-12  0.3100E-12  0.3150E-12  0.3220E-12  0.3340E-12  0.3470E-12  0.3560E-12
  0.1000E+15  0.3760E-13  0.3410E-13  0.3030E-13  0.2730E-13  0.2590E-13  0.2550E-13  0.2550E-13  0.2560E-13  0.2560E-13  0.2570E-13  0.2590E-13  0.2610E-13  0.2640E-13  0.2650E-13
  0.1000E+16  0.3850E-14  0.3440E-14  0.3040E-14  0.2710E-14  0.2550E-14  0.2500E-14  0.2490E-14  0.2500E-14  0.2500E-14  0.2510E-14  0.2510E-14  0.2520E-14  0.2530E-14  0.2540E-14
  0.1000E+17  0.3850E-15  0.3440E-15  0.3040E-15  0.2700E-15  0.2550E-15  0.2490E-15  0.2490E-15  0.2490E-15  0.2490E-15  0.2500E-15  0.2510E-15  0.2510E-15  0.2520E-15  0.2520E-15
WAVELENGTH(A)= 
  8473.860
 7 14 t 
excit   
     9.930     14.900     24.800     49.600     99.300    248.000    496.000    744.000    993.000   1490.000   2480.000   4960.000   9930.000  14900.000 
  0.1000E+11  0.5280E-12  0.6720E-12  0.8210E-12  0.1010E-11  0.1490E-11  0.2340E-11  0.2730E-11  0.2840E-11  0.2880E-11  0.2880E-11  0.2810E-11  0.2600E-11  0.2310E-11  0.2130E-11
  0.1000E+12  0.7930E-12  0.1020E-11  0.1260E-11  0.1530E-11  0.2030E-11  0.2770E-11  0.3020E-11  0.3060E-11  0.3050E-11  0.2990E-11  0.2870E-11  0.2620E-11  0.2320E-11  0.2130E-11
  0.1000E+13  0.9320E-12  0.1130E-11  0.1310E-11  0.1480E-11  0.1690E-11  0.1880E-11  0.1890E-11  0.1880E-11  0.1860E-11  0.1820E-11  0.1760E-11  0.1650E-11  0.1520E-11  0.1440E-11
  0.1000E+14  0.2630E-12  0.2660E-12  0.2610E-12  0.2510E-12  0.2400E-12  0.2290E-12  0.2260E-12  0.2250E-12  0.2250E-12  0.2260E-12  0.2270E-12  0.2290E-12  0.2310E-12  0.2330E-12
  0.1000E+15  0.2780E-13  0.2560E-13  0.2320E-13  0.2100E-13  0.1990E-13  0.1920E-13  0.1900E-13  0.1900E-13  0.1900E-13  0.1900E-13  0.1900E-13  0.1910E-13  0.1910E-13  0.1920E-13
  0.1000E+16  0.2770E-14  0.2520E-14  0.2260E-14  0.2030E-14  0.1920E-14  0.1870E-14  0.1850E-14  0.1850E-14  0.1840E-14  0.1840E-14  0.1840E-14  0.1840E-14  0.1840E-14  0.1850E-14
  0.1000E+17  0.2770E-15  0.2510E-15  0.2250E-15  0.2020E-15  0.1920E-15  0.1860E-15  0.1850E-15  0.1840E-15  0.1840E-15  0.1840E-15  0.1840E-15  0.1840E-15  0.1840E-15  0.1840E-15
WAVELENGTH(A)= 
  8536.790
 7 14 t 
excit   
     9.930     14.900     24.800     49.600     99.300    248.000    496.000    744.000    993.000   1490.000   2480.000   4960.000   9930.000  14900.000 
  0.1000E+11  0.1060E-12  0.1430E-12  0.1850E-12  0.2900E-12  0.7220E-12  0.1600E-11  0.2070E-11  0.2240E-11  0.2320E-11  0.2380E-11  0.2370E-11  0.2250E-11  0.2030E-11  0.1870E-11
  0.1000E+12  0.1250E-12  0.1710E-12  0.2220E-12  0.3410E-12  0.7990E-12  0.1680E-11  0.2120E-11  0.2270E-11  0.2340E-11  0.2370E-11  0.2350E-11  0.2220E-11  0.2000E-11  0.1840E-11
  0.1000E+13  0.1990E-12  0.2620E-12  0.3280E-12  0.4470E-12  0.7960E-12  0.1300E-11  0.1510E-11  0.1580E-11  0.1610E-11  0.1630E-11  0.1630E-11  0.1580E-11  0.1480E-11  0.1400E-11
  0.1000E+14  0.1900E-12  0.2070E-12  0.2140E-12  0.2210E-12  0.2410E-12  0.2620E-12  0.2710E-12  0.2750E-12  0.2770E-12  0.2800E-12  0.2830E-12  0.2860E-12  0.2880E-12  0.2880E-12
  0.1000E+15  0.3340E-13  0.3250E-13  0.3060E-13  0.2870E-13  0.2790E-13  0.2780E-13  0.2800E-13  0.2810E-13  0.2820E-13  0.2830E-13  0.2840E-13  0.2850E-13  0.2860E-13  0.2870E-13
  0.1000E+16  0.3560E-14  0.3410E-14  0.3170E-14  0.2940E-14  0.2830E-14  0.2800E-14  0.2800E-14  0.2810E-14  0.2810E-14  0.2820E-14  0.2830E-14  0.2840E-14  0.2850E-14  0.2850E-14
  0.1000E+17  0.3590E-15  0.3420E-15  0.3180E-15  0.2950E-15  0.2830E-15  0.2800E-15  0.2800E-15  0.2810E-15  0.2810E-15  0.2820E-15  0.2830E-15  0.2840E-15  0.2840E-15  0.2840E-15
WAVELENGTH(A)= 
  8561.640
 7 14 t 
excit   
     9.930     14.900     24.800     49.600     99.300    248.000    496.000    744.000    993.000   1490.000   2480.000   4960.000   9930.000  14900.000 
  0.1000E+11  0.3800E-10  0.4320E-10  0.4910E-10  0.5510E-10  0.6290E-10  0.7280E-10  0.7530E-10  0.7490E-10  0.7400E-10  0.7190E-10  0.6830E-10  0.6210E-10  0.5470E-10  0.5020E-10
  0.1000E+12  0.2460E-10  0.2680E-10  0.2900E-10  0.3090E-10  0.3210E-10  0.3250E-10  0.3200E-10  0.3150E-10  0.3110E-10  0.3040E-10  0.2950E-10  0.2810E-10  0.2650E-10  0.2540E-10
  0.1000E+13  0.4840E-11  0.4780E-11  0.4690E-11  0.4500E-11  0.3970E-11  0.3280E-11  0.3030E-11  0.2950E-11  0.2910E-11  0.2890E-11  0.2880E-11  0.2920E-11  0.2990E-11  0.3040E-11
  0.1000E+14  0.2820E-12  0.2330E-12  0.1940E-12  0.1600E-12  0.1250E-12  0.9890E-13  0.9260E-13  0.9130E-13  0.9100E-13  0.9130E-13  0.9280E-13  0.9650E-13  0.1020E-12  0.1070E-12
  0.1000E+15  0.1480E-13  0.1110E-13  0.8590E-14  0.6870E-14  0.5990E-14  0.5490E-14  0.5360E-14  0.5340E-14  0.5330E-14  0.5330E-14  0.5340E-14  0.5380E-14  0.5450E-14  0.5500E-14
  0.1000E+16  0.1300E-14  0.9650E-15  0.7360E-15  0.5900E-15  0.5320E-15  0.5050E-15  0.4970E-15  0.4950E-15  0.4950E-15  0.4940E-15  0.4940E-15  0.4940E-15  0.4940E-15  0.4950E-15
  0.1000E+17  0.1280E-15  0.9500E-16  0.7240E-16  0.5800E-16  0.5250E-16  0.5000E-16  0.4930E-16  0.4920E-16  0.4910E-16  0.4900E-16  0.4900E-16  0.4890E-16  0.4890E-16  0.4890E-16
WAVELENGTH(A)= 
  8806.690
 7 14 t 
excit   
     9.930     14.900     24.800     49.600     99.300    248.000    496.000    744.000    993.000   1490.000   2480.000   4960.000   9930.000  14900.000 
  0.1000E+11  0.3940E-12  0.4920E-12  0.5870E-12  0.7130E-12  0.1030E-11  0.1610E-11  0.1880E-11  0.1960E-11  0.1990E-11  0.1990E-11  0.1950E-11  0.1810E-11  0.1610E-11  0.1480E-11
  0.1000E+12  0.3820E-12  0.4760E-12  0.5680E-12  0.6930E-12  0.1010E-11  0.1570E-11  0.1800E-11  0.1870E-11  0.1890E-11  0.1890E-11  0.1840E-11  0.1710E-11  0.1530E-11  0.1410E-11
  0.1000E+13  0.3250E-12  0.3930E-12  0.4560E-12  0.5370E-12  0.7170E-12  0.9380E-12  0.1010E-11  0.1030E-11  0.1040E-11  0.1040E-11  0.1030E-11  0.9900E-12  0.9320E-12  0.8900E-12
  0.1000E+14  0.1170E-12  0.1190E-12  0.1160E-12  0.1140E-12  0.1150E-12  0.1160E-12  0.1170E-12  0.1180E-12  0.1190E-12  0.1200E-12  0.1210E-12  0.1230E-12  0.1260E-12  0.1280E-12
  0.1000E+15  0.1460E-13  0.1340E-13  0.1210E-13  0.1100E-13  0.1040E-13  0.1020E-13  0.1010E-13  0.1010E-13  0.1010E-13  0.1020E-13  0.1020E-13  0.1020E-13  0.1030E-13  0.1040E-13
  0.1000E+16  0.1490E-14  0.1350E-14  0.1210E-14  0.1090E-14  0.1030E-14  0.9970E-15  0.9910E-15  0.9900E-15  0.9900E-15  0.9900E-15  0.9910E-15  0.9930E-15  0.9940E-15  0.9950E-15
  0.1000E+17  0.1490E-15  0.1350E-15  0.1210E-15  0.1080E-15  0.1020E-15  0.9950E-16  0.9880E-16  0.9870E-16  0.9870E-16  0.9870E-16  0.9880E-16  0.9890E-16  0.9900E-16  0.9910E-16
