 50  7 14
WAVELENGTH(A)= 
    47.104
 7 14 t 
excit   
    11.700     17.500     29.100     58.200    117.000    291.000    582.000    874.000   1170.000   1750.000   2910.000   5820.000  11700.000  17500.000 
  0.1000E+11  0.9240E-18  0.1410E-14  0.4520E-12  0.2950E-10  0.1970E-09  0.4980E-09  0.6120E-09  0.6350E-09  0.6360E-09  0.6240E-09  0.5930E-09  0.5320E-09  0.4630E-09  0.4210E-09
  0.1000E+12  0.8700E-18  0.1310E-14  0.4130E-12  0.2520E-10  0.1390E-09  0.3020E-09  0.3590E-09  0.3700E-09  0.3720E-09  0.3660E-09  0.3520E-09  0.3240E-09  0.2910E-09  0.2700E-09
  0.1000E+13  0.6550E-18  0.9280E-15  0.2780E-12  0.1480E-10  0.7530E-10  0.1720E-09  0.2090E-09  0.2160E-09  0.2170E-09  0.2120E-09  0.2020E-09  0.1820E-09  0.1600E-09  0.1460E-09
  0.1000E+14  0.4600E-18  0.6040E-15  0.1690E-12  0.9220E-11  0.5670E-10  0.1450E-09  0.1790E-09  0.1850E-09  0.1850E-09  0.1800E-09  0.1700E-09  0.1500E-09  0.1290E-09  0.1160E-09
  0.1000E+15  0.3900E-18  0.4990E-15  0.1380E-12  0.8140E-11  0.5410E-10  0.1410E-09  0.1750E-09  0.1810E-09  0.1810E-09  0.1760E-09  0.1660E-09  0.1460E-09  0.1250E-09  0.1120E-09
  0.1000E+16  0.3800E-18  0.4850E-15  0.1340E-12  0.8020E-11  0.5390E-10  0.1410E-09  0.1750E-09  0.1810E-09  0.1810E-09  0.1760E-09  0.1650E-09  0.1460E-09  0.1250E-09  0.1120E-09
  0.1000E+17  0.3790E-18  0.4840E-15  0.1340E-12  0.8000E-11  0.5380E-10  0.1410E-09  0.1750E-09  0.1810E-09  0.1810E-09  0.1760E-09  0.1650E-09  0.1460E-09  0.1240E-09  0.1120E-09
WAVELENGTH(A)= 
    48.562
 7 14 t 
excit   
    11.700     17.500     29.100     58.200    117.000    291.000    582.000    874.000   1170.000   1750.000   2910.000   5820.000  11700.000  17500.000 
  0.1000E+11  0.8500E-19  0.1290E-15  0.4150E-13  0.2710E-11  0.1810E-10  0.4580E-10  0.5620E-10  0.5830E-10  0.5840E-10  0.5730E-10  0.5450E-10  0.4890E-10  0.4250E-10  0.3870E-10
  0.1000E+12  0.7990E-19  0.1200E-15  0.3800E-13  0.2310E-11  0.1280E-10  0.2770E-10  0.3300E-10  0.3400E-10  0.3410E-10  0.3370E-10  0.3240E-10  0.2980E-10  0.2670E-10  0.2480E-10
  0.1000E+13  0.6020E-19  0.8530E-16  0.2550E-13  0.1360E-11  0.6920E-11  0.1580E-10  0.1920E-10  0.1990E-10  0.1990E-10  0.1950E-10  0.1850E-10  0.1670E-10  0.1470E-10  0.1340E-10
  0.1000E+14  0.4230E-19  0.5560E-16  0.1560E-13  0.8470E-12  0.5210E-11  0.1330E-10  0.1640E-10  0.1700E-10  0.1700E-10  0.1660E-10  0.1560E-10  0.1380E-10  0.1180E-10  0.1070E-10
  0.1000E+15  0.3580E-19  0.4590E-16  0.1270E-13  0.7480E-12  0.4970E-11  0.1300E-10  0.1610E-10  0.1670E-10  0.1660E-10  0.1620E-10  0.1520E-10  0.1340E-10  0.1150E-10  0.1030E-10
  0.1000E+16  0.3490E-19  0.4460E-16  0.1230E-13  0.7370E-12  0.4950E-11  0.1290E-10  0.1610E-10  0.1660E-10  0.1660E-10  0.1620E-10  0.1520E-10  0.1340E-10  0.1140E-10  0.1030E-10
  0.1000E+17  0.3480E-19  0.4450E-16  0.1230E-13  0.7350E-12  0.4950E-11  0.1290E-10  0.1600E-10  0.1660E-10  0.1660E-10  0.1620E-10  0.1520E-10  0.1340E-10  0.1140E-10  0.1030E-10
WAVELENGTH(A)= 
    48.632
 7 14 t 
excit   
    11.700     17.500     29.100     58.200    117.000    291.000    582.000    874.000   1170.000   1750.000   2910.000   5820.000  11700.000  17500.000 
  0.1000E+11  0.2270E-19  0.3260E-16  0.9980E-14  0.6650E-12  0.5470E-11  0.1780E-10  0.2350E-10  0.2450E-10  0.2440E-10  0.2350E-10  0.2160E-10  0.1830E-10  0.1490E-10  0.1300E-10
  0.1000E+12  0.2570E-19  0.3640E-16  0.1120E-13  0.9990E-12  0.1290E-10  0.4920E-10  0.6580E-10  0.6850E-10  0.6820E-10  0.6530E-10  0.5930E-10  0.4930E-10  0.3890E-10  0.3330E-10
  0.1000E+13  0.6710E-19  0.9300E-16  0.2880E-13  0.3140E-11  0.3460E-10  0.1040E-09  0.1320E-09  0.1370E-09  0.1360E-09  0.1320E-09  0.1220E-09  0.1060E-09  0.8760E-10  0.7710E-10
  0.1000E+14  0.2680E-18  0.3410E-15  0.9520E-13  0.6400E-11  0.4540E-10  0.1190E-09  0.1470E-09  0.1520E-09  0.1520E-09  0.1480E-09  0.1390E-09  0.1220E-09  0.1040E-09  0.9340E-10
  0.1000E+15  0.3800E-18  0.4600E-15  0.1220E-12  0.6970E-11  0.4630E-10  0.1200E-09  0.1490E-09  0.1530E-09  0.1530E-09  0.1490E-09  0.1400E-09  0.1230E-09  0.1050E-09  0.9470E-10
  0.1000E+16  0.3950E-18  0.4740E-15  0.1240E-12  0.7020E-11  0.4640E-10  0.1200E-09  0.1490E-09  0.1540E-09  0.1530E-09  0.1490E-09  0.1400E-09  0.1240E-09  0.1050E-09  0.9480E-10
  0.1000E+17  0.3970E-18  0.4760E-15  0.1250E-12  0.7020E-11  0.4640E-10  0.1200E-09  0.1490E-09  0.1540E-09  0.1530E-09  0.1490E-09  0.1400E-09  0.1240E-09  0.1050E-09  0.9480E-10
WAVELENGTH(A)= 
    48.849
 7 14 t 
excit   
    11.700     17.500     29.100     58.200    117.000    291.000    582.000    874.000   1170.000   1750.000   2910.000   5820.000  11700.000  17500.000 
  0.1000E+11  0.9130E-19  0.1390E-15  0.4460E-13  0.2910E-11  0.1940E-10  0.4920E-10  0.6040E-10  0.6260E-10  0.6280E-10  0.6160E-10  0.5850E-10  0.5250E-10  0.4570E-10  0.4150E-10
  0.1000E+12  0.8590E-19  0.1290E-15  0.4080E-13  0.2480E-11  0.1380E-10  0.2980E-10  0.3540E-10  0.3660E-10  0.3670E-10  0.3620E-10  0.3480E-10  0.3200E-10  0.2870E-10  0.2670E-10
  0.1000E+13  0.6470E-19  0.9160E-16  0.2740E-13  0.1460E-11  0.7430E-11  0.1700E-10  0.2070E-10  0.2140E-10  0.2140E-10  0.2090E-10  0.1990E-10  0.1790E-10  0.1570E-10  0.1440E-10
  0.1000E+14  0.4540E-19  0.5970E-16  0.1670E-13  0.9100E-12  0.5600E-11  0.1430E-10  0.1760E-10  0.1830E-10  0.1820E-10  0.1780E-10  0.1670E-10  0.1480E-10  0.1270E-10  0.1150E-10
  0.1000E+15  0.3850E-19  0.4930E-16  0.1360E-13  0.8030E-12  0.5340E-11  0.1390E-10  0.1730E-10  0.1790E-10  0.1790E-10  0.1740E-10  0.1640E-10  0.1440E-10  0.1230E-10  0.1110E-10
  0.1000E+16  0.3750E-19  0.4790E-16  0.1320E-13  0.7910E-12  0.5320E-11  0.1390E-10  0.1720E-10  0.1790E-10  0.1780E-10  0.1740E-10  0.1630E-10  0.1440E-10  0.1230E-10  0.1110E-10
  0.1000E+17  0.3740E-19  0.4780E-16  0.1320E-13  0.7900E-12  0.5310E-11  0.1390E-10  0.1720E-10  0.1790E-10  0.1780E-10  0.1740E-10  0.1630E-10  0.1440E-10  0.1230E-10  0.1110E-10
WAVELENGTH(A)= 
    48.931
 7 14 t 
excit   
    11.700     17.500     29.100     58.200    117.000    291.000    582.000    874.000   1170.000   1750.000   2910.000   5820.000  11700.000  17500.000 
  0.1000E+11  0.1070E-18  0.1210E-15  0.3050E-13  0.1670E-11  0.1030E-10  0.2540E-10  0.3090E-10  0.3190E-10  0.3180E-10  0.3100E-10  0.2910E-10  0.2590E-10  0.2220E-10  0.2010E-10
  0.1000E+12  0.1030E-18  0.1160E-15  0.2940E-13  0.1560E-11  0.8790E-11  0.1990E-10  0.2380E-10  0.2450E-10  0.2450E-10  0.2390E-10  0.2270E-10  0.2040E-10  0.1780E-10  0.1630E-10
  0.1000E+13  0.8600E-19  0.9630E-16  0.2390E-13  0.1200E-11  0.6570E-11  0.1550E-10  0.1880E-10  0.1940E-10  0.1930E-10  0.1880E-10  0.1770E-10  0.1580E-10  0.1360E-10  0.1230E-10
  0.1000E+14  0.7510E-19  0.8130E-16  0.1960E-13  0.9900E-12  0.5800E-11  0.1420E-10  0.1730E-10  0.1790E-10  0.1780E-10  0.1730E-10  0.1620E-10  0.1430E-10  0.1230E-10  0.1100E-10
  0.1000E+15  0.7470E-19  0.7910E-16  0.1870E-13  0.9450E-12  0.5670E-11  0.1400E-10  0.1710E-10  0.1770E-10  0.1760E-10  0.1710E-10  0.1600E-10  0.1410E-10  0.1200E-10  0.1080E-10
  0.1000E+16  0.7470E-19  0.7880E-16  0.1860E-13  0.9390E-12  0.5650E-11  0.1400E-10  0.1710E-10  0.1760E-10  0.1760E-10  0.1710E-10  0.1600E-10  0.1410E-10  0.1200E-10  0.1080E-10
  0.1000E+17  0.7470E-19  0.7880E-16  0.1860E-13  0.9380E-12  0.5650E-11  0.1400E-10  0.1710E-10  0.1760E-10  0.1750E-10  0.1700E-10  0.1600E-10  0.1410E-10  0.1200E-10  0.1080E-10
WAVELENGTH(A)= 
    48.937
 7 14 t 
excit   
    11.700     17.500     29.100     58.200    117.000    291.000    582.000    874.000   1170.000   1750.000   2910.000   5820.000  11700.000  17500.000 
  0.1000E+11  0.1230E-18  0.1870E-15  0.6010E-13  0.3920E-11  0.2620E-10  0.6630E-10  0.8140E-10  0.8440E-10  0.8460E-10  0.8300E-10  0.7890E-10  0.7080E-10  0.6160E-10  0.5600E-10
  0.1000E+12  0.1160E-18  0.1740E-15  0.5500E-13  0.3350E-11  0.1850E-10  0.4010E-10  0.4770E-10  0.4930E-10  0.4940E-10  0.4870E-10  0.4690E-10  0.4310E-10  0.3870E-10  0.3600E-10
  0.1000E+13  0.8710E-19  0.1230E-15  0.3690E-13  0.1970E-11  0.1000E-10  0.2290E-10  0.2780E-10  0.2880E-10  0.2880E-10  0.2820E-10  0.2680E-10  0.2420E-10  0.2120E-10  0.1950E-10
  0.1000E+14  0.6120E-19  0.8040E-16  0.2250E-13  0.1230E-11  0.7540E-11  0.1920E-10  0.2380E-10  0.2460E-10  0.2460E-10  0.2400E-10  0.2260E-10  0.2000E-10  0.1710E-10  0.1550E-10
  0.1000E+15  0.5190E-19  0.6640E-16  0.1830E-13  0.1080E-11  0.7200E-11  0.1880E-10  0.2330E-10  0.2410E-10  0.2410E-10  0.2350E-10  0.2210E-10  0.1950E-10  0.1660E-10  0.1500E-10
  0.1000E+16  0.5060E-19  0.6460E-16  0.1780E-13  0.1070E-11  0.7170E-11  0.1870E-10  0.2320E-10  0.2410E-10  0.2400E-10  0.2340E-10  0.2200E-10  0.1940E-10  0.1660E-10  0.1490E-10
  0.1000E+17  0.5040E-19  0.6440E-16  0.1780E-13  0.1060E-11  0.7160E-11  0.1870E-10  0.2320E-10  0.2410E-10  0.2400E-10  0.2340E-10  0.2200E-10  0.1940E-10  0.1660E-10  0.1490E-10
WAVELENGTH(A)= 
    49.033
 7 14 t 
excit   
    11.700     17.500     29.100     58.200    117.000    291.000    582.000    874.000   1170.000   1750.000   2910.000   5820.000  11700.000  17500.000 
  0.1000E+11  0.3920E-17  0.4460E-14  0.1130E-11  0.6150E-10  0.3770E-09  0.8980E-09  0.1090E-08  0.1120E-08  0.1120E-08  0.1090E-08  0.1030E-08  0.9250E-09  0.8030E-09  0.7290E-09
  0.1000E+12  0.3670E-17  0.4110E-14  0.1030E-11  0.5200E-10  0.2590E-09  0.5120E-09  0.5940E-09  0.6090E-09  0.6090E-09  0.5990E-09  0.5760E-09  0.5320E-09  0.4800E-09  0.4480E-09
  0.1000E+13  0.2620E-17  0.2780E-14  0.6540E-12  0.2820E-10  0.1220E-09  0.2530E-09  0.3010E-09  0.3080E-09  0.3080E-09  0.3000E-09  0.2850E-09  0.2580E-09  0.2280E-09  0.2100E-09
  0.1000E+14  0.1600E-17  0.1570E-14  0.3470E-12  0.1530E-10  0.8380E-10  0.2010E-09  0.2440E-09  0.2510E-09  0.2500E-09  0.2430E-09  0.2280E-09  0.2010E-09  0.1720E-09  0.1550E-09
  0.1000E+15  0.1240E-17  0.1190E-14  0.2580E-12  0.1280E-10  0.7870E-10  0.1940E-09  0.2380E-09  0.2450E-09  0.2430E-09  0.2360E-09  0.2210E-09  0.1940E-09  0.1650E-09  0.1490E-09
  0.1000E+16  0.1190E-17  0.1140E-14  0.2470E-12  0.1260E-10  0.7820E-10  0.1940E-09  0.2370E-09  0.2440E-09  0.2430E-09  0.2350E-09  0.2200E-09  0.1940E-09  0.1650E-09  0.1480E-09
  0.1000E+17  0.1190E-17  0.1130E-14  0.2460E-12  0.1250E-10  0.7810E-10  0.1940E-09  0.2370E-09  0.2440E-09  0.2430E-09  0.2350E-09  0.2200E-09  0.1940E-09  0.1650E-09  0.1480E-09
WAVELENGTH(A)= 
    49.481
 7 14 t 
excit   
    11.700     17.500     29.100     58.200    117.000    291.000    582.000    874.000   1170.000   1750.000   2910.000   5820.000  11700.000  17500.000 
  0.1000E+11  0.1910E-18  0.2020E-15  0.4880E-13  0.2560E-11  0.1570E-10  0.3820E-10  0.4640E-10  0.4780E-10  0.4770E-10  0.4650E-10  0.4400E-10  0.3910E-10  0.3370E-10  0.3060E-10
  0.1000E+12  0.1880E-18  0.1970E-15  0.4690E-13  0.2360E-11  0.1260E-10  0.2640E-10  0.3080E-10  0.3160E-10  0.3160E-10  0.3100E-10  0.2960E-10  0.2710E-10  0.2410E-10  0.2230E-10
  0.1000E+13  0.1640E-18  0.1620E-15  0.3650E-13  0.1580E-11  0.7150E-11  0.1520E-10  0.1800E-10  0.1850E-10  0.1840E-10  0.1800E-10  0.1700E-10  0.1530E-10  0.1340E-10  0.1240E-10
  0.1000E+14  0.1180E-18  0.1080E-15  0.2260E-13  0.9750E-12  0.5300E-11  0.1260E-10  0.1520E-10  0.1560E-10  0.1550E-10  0.1510E-10  0.1420E-10  0.1250E-10  0.1070E-10  0.9690E-11
  0.1000E+15  0.9820E-19  0.8760E-16  0.1810E-13  0.8520E-12  0.5040E-11  0.1230E-10  0.1490E-10  0.1530E-10  0.1520E-10  0.1470E-10  0.1380E-10  0.1220E-10  0.1040E-10  0.9340E-11
  0.1000E+16  0.9550E-19  0.8490E-16  0.1760E-13  0.8380E-12  0.5010E-11  0.1220E-10  0.1480E-10  0.1520E-10  0.1520E-10  0.1470E-10  0.1380E-10  0.1210E-10  0.1030E-10  0.9300E-11
  0.1000E+17  0.9520E-19  0.8470E-16  0.1750E-13  0.8370E-12  0.5010E-11  0.1220E-10  0.1480E-10  0.1520E-10  0.1520E-10  0.1470E-10  0.1380E-10  0.1210E-10  0.1030E-10  0.9300E-11
WAVELENGTH(A)= 
    49.691
 7 14 t 
excit   
    11.700     17.500     29.100     58.200    117.000    291.000    582.000    874.000   1170.000   1750.000   2910.000   5820.000  11700.000  17500.000 
  0.1000E+11  0.1080E-18  0.1230E-15  0.3110E-13  0.1690E-11  0.1040E-10  0.2470E-10  0.2990E-10  0.3080E-10  0.3080E-10  0.3000E-10  0.2840E-10  0.2540E-10  0.2210E-10  0.2010E-10
  0.1000E+12  0.1010E-18  0.1130E-15  0.2820E-13  0.1430E-11  0.7110E-11  0.1410E-10  0.1630E-10  0.1680E-10  0.1680E-10  0.1650E-10  0.1590E-10  0.1460E-10  0.1320E-10  0.1230E-10
  0.1000E+13  0.7220E-19  0.7640E-16  0.1800E-13  0.7770E-12  0.3360E-11  0.6970E-11  0.8270E-11  0.8490E-11  0.8470E-11  0.8260E-11  0.7850E-11  0.7090E-11  0.6260E-11  0.5770E-11
  0.1000E+14  0.4410E-19  0.4330E-16  0.9540E-14  0.4200E-12  0.2310E-11  0.5520E-11  0.6720E-11  0.6910E-11  0.6880E-11  0.6680E-11  0.6270E-11  0.5530E-11  0.4740E-11  0.4280E-11
  0.1000E+15  0.3420E-19  0.3260E-16  0.7100E-14  0.3530E-12  0.2170E-11  0.5350E-11  0.6540E-11  0.6730E-11  0.6700E-11  0.6490E-11  0.6080E-11  0.5350E-11  0.4550E-11  0.4090E-11
  0.1000E+16  0.3280E-19  0.3120E-16  0.6800E-14  0.3460E-12  0.2150E-11  0.5330E-11  0.6520E-11  0.6710E-11  0.6680E-11  0.6470E-11  0.6060E-11  0.5330E-11  0.4530E-11  0.4070E-11
  0.1000E+17  0.3270E-19  0.3110E-16  0.6770E-14  0.3450E-12  0.2150E-11  0.5330E-11  0.6520E-11  0.6710E-11  0.6680E-11  0.6470E-11  0.6060E-11  0.5320E-11  0.4530E-11  0.4070E-11
WAVELENGTH(A)= 
    49.759
 7 14 t 
excit   
    11.700     17.500     29.100     58.200    117.000    291.000    582.000    874.000   1170.000   1750.000   2910.000   5820.000  11700.000  17500.000 
  0.1000E+11  0.8150E-19  0.9250E-16  0.2340E-13  0.1280E-11  0.7830E-11  0.1860E-10  0.2250E-10  0.2320E-10  0.2320E-10  0.2260E-10  0.2150E-10  0.1920E-10  0.1670E-10  0.1510E-10
  0.1000E+12  0.7620E-19  0.8540E-16  0.2130E-13  0.1080E-11  0.5370E-11  0.1060E-10  0.1230E-10  0.1260E-10  0.1270E-10  0.1240E-10  0.1200E-10  0.1100E-10  0.9970E-11  0.9300E-11
  0.1000E+13  0.5450E-19  0.5760E-16  0.1360E-13  0.5860E-12  0.2530E-11  0.5260E-11  0.6240E-11  0.6400E-11  0.6390E-11  0.6240E-11  0.5930E-11  0.5350E-11  0.4730E-11  0.4350E-11
  0.1000E+14  0.3330E-19  0.3270E-16  0.7200E-14  0.3170E-12  0.1740E-11  0.4170E-11  0.5070E-11  0.5220E-11  0.5200E-11  0.5040E-11  0.4730E-11  0.4180E-11  0.3580E-11  0.3230E-11
  0.1000E+15  0.2580E-19  0.2460E-16  0.5360E-14  0.2660E-12  0.1630E-11  0.4040E-11  0.4930E-11  0.5080E-11  0.5060E-11  0.4900E-11  0.4590E-11  0.4040E-11  0.3440E-11  0.3090E-11
  0.1000E+16  0.2480E-19  0.2360E-16  0.5130E-14  0.2610E-12  0.1620E-11  0.4020E-11  0.4920E-11  0.5060E-11  0.5040E-11  0.4890E-11  0.4580E-11  0.4020E-11  0.3420E-11  0.3070E-11
  0.1000E+17  0.2460E-19  0.2350E-16  0.5110E-14  0.2600E-12  0.1620E-11  0.4020E-11  0.4920E-11  0.5060E-11  0.5040E-11  0.4880E-11  0.4570E-11  0.4020E-11  0.3420E-11  0.3070E-11
WAVELENGTH(A)= 
    50.038
 7 14 t 
excit   
    11.700     17.500     29.100     58.200    117.000    291.000    582.000    874.000   1170.000   1750.000   2910.000   5820.000  11700.000  17500.000 
  0.1000E+11  0.1790E-18  0.1940E-15  0.4780E-13  0.2580E-11  0.1640E-10  0.4190E-10  0.5170E-10  0.5330E-10  0.5310E-10  0.5160E-10  0.4830E-10  0.4250E-10  0.3610E-10  0.3240E-10
  0.1000E+12  0.1860E-18  0.2010E-15  0.4910E-13  0.2670E-11  0.1780E-10  0.4700E-10  0.5810E-10  0.5990E-10  0.5960E-10  0.5790E-10  0.5410E-10  0.4730E-10  0.4000E-10  0.3570E-10
  0.1000E+13  0.2320E-18  0.2400E-15  0.5640E-13  0.3050E-11  0.1880E-10  0.4510E-10  0.5460E-10  0.5610E-10  0.5590E-10  0.5440E-10  0.5100E-10  0.4520E-10  0.3890E-10  0.3510E-10
  0.1000E+14  0.2910E-18  0.2770E-15  0.6030E-13  0.2930E-11  0.1730E-10  0.4200E-10  0.5090E-10  0.5230E-10  0.5210E-10  0.5060E-10  0.4730E-10  0.4160E-10  0.3560E-10  0.3200E-10
  0.1000E+15  0.2990E-18  0.2750E-15  0.5830E-13  0.2830E-11  0.1700E-10  0.4150E-10  0.5040E-10  0.5180E-10  0.5150E-10  0.5000E-10  0.4670E-10  0.4110E-10  0.3500E-10  0.3140E-10
  0.1000E+16  0.3000E-18  0.2740E-15  0.5790E-13  0.2810E-11  0.1690E-10  0.4140E-10  0.5030E-10  0.5170E-10  0.5140E-10  0.5000E-10  0.4670E-10  0.4100E-10  0.3490E-10  0.3130E-10
  0.1000E+17  0.3000E-18  0.2740E-15  0.5780E-13  0.2810E-11  0.1690E-10  0.4140E-10  0.5030E-10  0.5170E-10  0.5140E-10  0.5000E-10  0.4670E-10  0.4100E-10  0.3490E-10  0.3130E-10
WAVELENGTH(A)= 
    50.337
 7 14 t 
excit   
    11.700     17.500     29.100     58.200    117.000    291.000    582.000    874.000   1170.000   1750.000   2910.000   5820.000  11700.000  17500.000 
  0.1000E+11  0.1550E-18  0.1420E-15  0.3070E-13  0.1500E-11  0.8790E-11  0.2110E-10  0.2550E-10  0.2610E-10  0.2600E-10  0.2530E-10  0.2370E-10  0.2090E-10  0.1790E-10  0.1610E-10
  0.1000E+12  0.1520E-18  0.1400E-15  0.3010E-13  0.1450E-11  0.7970E-11  0.1790E-10  0.2120E-10  0.2170E-10  0.2160E-10  0.2110E-10  0.2000E-10  0.1780E-10  0.1550E-10  0.1410E-10
  0.1000E+13  0.1360E-18  0.1250E-15  0.2660E-13  0.1200E-11  0.6060E-11  0.1350E-10  0.1610E-10  0.1650E-10  0.1640E-10  0.1600E-10  0.1500E-10  0.1340E-10  0.1160E-10  0.1060E-10
  0.1000E+14  0.1170E-18  0.1040E-15  0.2120E-13  0.9360E-12  0.5070E-11  0.1190E-10  0.1440E-10  0.1470E-10  0.1460E-10  0.1420E-10  0.1330E-10  0.1170E-10  0.1000E-10  0.9030E-11
  0.1000E+15  0.1120E-18  0.9620E-16  0.1930E-13  0.8670E-12  0.4890E-11  0.1170E-10  0.1410E-10  0.1450E-10  0.1440E-10  0.1400E-10  0.1310E-10  0.1150E-10  0.9770E-11  0.8780E-11
  0.1000E+16  0.1110E-18  0.9520E-16  0.1910E-13  0.8590E-12  0.4880E-11  0.1170E-10  0.1410E-10  0.1450E-10  0.1440E-10  0.1390E-10  0.1300E-10  0.1140E-10  0.9740E-11  0.8760E-11
  0.1000E+17  0.1110E-18  0.9510E-16  0.1910E-13  0.8580E-12  0.4870E-11  0.1170E-10  0.1410E-10  0.1450E-10  0.1440E-10  0.1390E-10  0.1300E-10  0.1140E-10  0.9740E-11  0.8750E-11
WAVELENGTH(A)= 
    50.944
 7 14 t 
excit   
    11.700     17.500     29.100     58.200    117.000    291.000    582.000    874.000   1170.000   1750.000   2910.000   5820.000  11700.000  17500.000 
  0.1000E+11  0.1160E-18  0.1110E-15  0.2470E-13  0.1350E-11  0.1140E-10  0.3820E-10  0.4990E-10  0.5170E-10  0.5110E-10  0.4900E-10  0.4440E-10  0.3700E-10  0.2940E-10  0.2520E-10
  0.1000E+12  0.2330E-18  0.2260E-15  0.5110E-13  0.3190E-11  0.2650E-10  0.6840E-10  0.8260E-10  0.8480E-10  0.8410E-10  0.8190E-10  0.7650E-10  0.6740E-10  0.5700E-10  0.5080E-10
  0.1000E+13  0.5730E-18  0.5130E-15  0.1070E-12  0.4850E-11  0.2440E-10  0.5320E-10  0.6310E-10  0.6460E-10  0.6410E-10  0.6250E-10  0.5880E-10  0.5250E-10  0.4550E-10  0.4140E-10
  0.1000E+14  0.5600E-18  0.4590E-15  0.8830E-13  0.3700E-11  0.1990E-10  0.4640E-10  0.5580E-10  0.5720E-10  0.5670E-10  0.5500E-10  0.5140E-10  0.4530E-10  0.3860E-10  0.3480E-10
  0.1000E+15  0.5130E-18  0.4110E-15  0.7780E-13  0.3390E-11  0.1920E-10  0.4560E-10  0.5480E-10  0.5620E-10  0.5570E-10  0.5410E-10  0.5040E-10  0.4430E-10  0.3760E-10  0.3380E-10
  0.1000E+16  0.5070E-18  0.4050E-15  0.7650E-13  0.3360E-11  0.1910E-10  0.4550E-10  0.5470E-10  0.5610E-10  0.5560E-10  0.5400E-10  0.5030E-10  0.4420E-10  0.3750E-10  0.3370E-10
  0.1000E+17  0.5060E-18  0.4040E-15  0.7630E-13  0.3360E-11  0.1910E-10  0.4540E-10  0.5470E-10  0.5610E-10  0.5560E-10  0.5400E-10  0.5030E-10  0.4420E-10  0.3750E-10  0.3370E-10
WAVELENGTH(A)= 
    51.126
 7 14 t 
excit   
    11.700     17.500     29.100     58.200    117.000    291.000    582.000    874.000   1170.000   1750.000   2910.000   5820.000  11700.000  17500.000 
  0.1000E+11  0.2300E-18  0.1940E-15  0.3880E-13  0.1770E-11  0.9980E-11  0.2280E-10  0.2700E-10  0.2780E-10  0.2740E-10  0.2680E-10  0.2530E-10  0.2240E-10  0.1930E-10  0.1750E-10
  0.1000E+12  0.2170E-18  0.1800E-15  0.3560E-13  0.1520E-11  0.7110E-11  0.1390E-10  0.1590E-10  0.1620E-10  0.1610E-10  0.1580E-10  0.1510E-10  0.1370E-10  0.1220E-10  0.1130E-10
  0.1000E+13  0.1650E-18  0.1290E-15  0.2410E-13  0.8950E-12  0.3760E-11  0.7670E-11  0.8960E-11  0.9160E-11  0.9050E-11  0.8840E-11  0.8340E-11  0.7440E-11  0.6500E-11  0.5960E-11
  0.1000E+14  0.1130E-18  0.8190E-16  0.1430E-13  0.5400E-12  0.2760E-11  0.6330E-11  0.7550E-11  0.7730E-11  0.7630E-11  0.7410E-11  0.6920E-11  0.6060E-11  0.5160E-11  0.4650E-11
  0.1000E+15  0.9330E-19  0.6620E-16  0.1140E-13  0.4710E-12  0.2630E-11  0.6160E-11  0.7380E-11  0.7560E-11  0.7460E-11  0.7240E-11  0.6750E-11  0.5880E-11  0.4990E-11  0.4480E-11
  0.1000E+16  0.9070E-19  0.6420E-16  0.1100E-13  0.4630E-12  0.2610E-11  0.6150E-11  0.7360E-11  0.7540E-11  0.7440E-11  0.7220E-11  0.6730E-11  0.5870E-11  0.4970E-11  0.4460E-11
  0.1000E+17  0.9040E-19  0.6400E-16  0.1100E-13  0.4620E-12  0.2610E-11  0.6140E-11  0.7360E-11  0.7540E-11  0.7440E-11  0.7220E-11  0.6730E-11  0.5860E-11  0.4970E-11  0.4460E-11
WAVELENGTH(A)= 
    51.331
 7 14 t 
excit   
    11.700     17.500     29.100     58.200    117.000    291.000    582.000    874.000   1170.000   1750.000   2910.000   5820.000  11700.000  17500.000 
  0.1000E+11  0.3710E-18  0.3050E-15  0.5960E-13  0.2680E-11  0.1500E-10  0.3420E-10  0.4050E-10  0.4150E-10  0.4140E-10  0.4030E-10  0.3800E-10  0.3390E-10  0.2940E-10  0.2670E-10
  0.1000E+12  0.3510E-18  0.2840E-15  0.5470E-13  0.2320E-11  0.1140E-10  0.2440E-10  0.2870E-10  0.2940E-10  0.2920E-10  0.2850E-10  0.2690E-10  0.2420E-10  0.2110E-10  0.1930E-10
  0.1000E+13  0.2890E-18  0.2210E-15  0.4040E-13  0.1680E-11  0.9160E-11  0.2130E-10  0.2540E-10  0.2610E-10  0.2590E-10  0.2510E-10  0.2350E-10  0.2080E-10  0.1780E-10  0.1600E-10
  0.1000E+14  0.3130E-18  0.2230E-15  0.3840E-13  0.1600E-11  0.8910E-11  0.2080E-10  0.2480E-10  0.2540E-10  0.2520E-10  0.2440E-10  0.2280E-10  0.2010E-10  0.1710E-10  0.1540E-10
  0.1000E+15  0.3380E-18  0.2340E-15  0.3930E-13  0.1600E-11  0.8860E-11  0.2070E-10  0.2470E-10  0.2520E-10  0.2510E-10  0.2430E-10  0.2270E-10  0.2000E-10  0.1700E-10  0.1530E-10
  0.1000E+16  0.3420E-18  0.2350E-15  0.3950E-13  0.1600E-11  0.8850E-11  0.2070E-10  0.2470E-10  0.2520E-10  0.2500E-10  0.2420E-10  0.2270E-10  0.1990E-10  0.1700E-10  0.1530E-10
  0.1000E+17  0.3420E-18  0.2360E-15  0.3950E-13  0.1600E-11  0.8850E-11  0.2060E-10  0.2460E-10  0.2520E-10  0.2500E-10  0.2420E-10  0.2270E-10  0.1990E-10  0.1700E-10  0.1530E-10
WAVELENGTH(A)= 
    53.451
 7 14 t 
excit   
    11.700     17.500     29.100     58.200    117.000    291.000    582.000    874.000   1170.000   1750.000   2910.000   5820.000  11700.000  17500.000 
  0.1000E+11  0.4440E-17  0.2770E-14  0.4350E-12  0.1660E-10  0.8500E-10  0.1820E-09  0.2120E-09  0.2160E-09  0.2150E-09  0.2080E-09  0.1950E-09  0.1740E-09  0.1500E-09  0.1360E-09
  0.1000E+12  0.4140E-17  0.2550E-14  0.3950E-12  0.1400E-10  0.5880E-10  0.1070E-09  0.1200E-09  0.1220E-09  0.1220E-09  0.1180E-09  0.1120E-09  0.1030E-09  0.9140E-10  0.8490E-10
  0.1000E+13  0.2970E-17  0.1730E-14  0.2530E-12  0.7930E-11  0.3170E-10  0.6340E-10  0.7330E-10  0.7430E-10  0.7390E-10  0.7110E-10  0.6660E-10  0.5940E-10  0.5110E-10  0.4660E-10
  0.1000E+14  0.2140E-17  0.1160E-14  0.1600E-12  0.5260E-11  0.2550E-10  0.5590E-10  0.6570E-10  0.6670E-10  0.6620E-10  0.6360E-10  0.5910E-10  0.5190E-10  0.4390E-10  0.3950E-10
  0.1000E+15  0.1940E-17  0.1020E-14  0.1380E-12  0.4780E-11  0.2470E-10  0.5500E-10  0.6480E-10  0.6580E-10  0.6530E-10  0.6270E-10  0.5820E-10  0.5100E-10  0.4300E-10  0.3860E-10
  0.1000E+16  0.1910E-17  0.9990E-15  0.1350E-12  0.4730E-11  0.2460E-10  0.5490E-10  0.6470E-10  0.6570E-10  0.6520E-10  0.6260E-10  0.5810E-10  0.5090E-10  0.4290E-10  0.3850E-10
  0.1000E+17  0.1910E-17  0.9970E-15  0.1350E-12  0.4730E-11  0.2460E-10  0.5490E-10  0.6470E-10  0.6570E-10  0.6520E-10  0.6250E-10  0.5810E-10  0.5090E-10  0.4290E-10  0.3850E-10
WAVELENGTH(A)= 
    53.515
 7 14 t 
excit   
    11.700     17.500     29.100     58.200    117.000    291.000    582.000    874.000   1170.000   1750.000   2910.000   5820.000  11700.000  17500.000 
  0.1000E+11  0.6450E-18  0.5290E-15  0.1030E-12  0.4650E-11  0.2600E-10  0.5930E-10  0.7020E-10  0.7200E-10  0.7180E-10  0.6990E-10  0.6590E-10  0.5890E-10  0.5100E-10  0.4630E-10
  0.1000E+12  0.6080E-18  0.4930E-15  0.9490E-13  0.4030E-11  0.1990E-10  0.4230E-10  0.4980E-10  0.5090E-10  0.5080E-10  0.4940E-10  0.4670E-10  0.4190E-10  0.3670E-10  0.3360E-10
  0.1000E+13  0.5010E-18  0.3830E-15  0.7010E-13  0.2910E-11  0.1590E-10  0.3700E-10  0.4420E-10  0.4520E-10  0.4490E-10  0.4360E-10  0.4090E-10  0.3600E-10  0.3080E-10  0.2780E-10
  0.1000E+14  0.5440E-18  0.3860E-15  0.6660E-13  0.2770E-11  0.1550E-10  0.3600E-10  0.4300E-10  0.4400E-10  0.4370E-10  0.4230E-10  0.3960E-10  0.3490E-10  0.2970E-10  0.2670E-10
  0.1000E+15  0.5870E-18  0.4060E-15  0.6830E-13  0.2770E-11  0.1540E-10  0.3590E-10  0.4280E-10  0.4380E-10  0.4350E-10  0.4210E-10  0.3940E-10  0.3460E-10  0.2950E-10  0.2650E-10
  0.1000E+16  0.5940E-18  0.4090E-15  0.6860E-13  0.2770E-11  0.1540E-10  0.3580E-10  0.4280E-10  0.4380E-10  0.4350E-10  0.4210E-10  0.3940E-10  0.3460E-10  0.2950E-10  0.2650E-10
  0.1000E+17  0.5940E-18  0.4090E-15  0.6860E-13  0.2770E-11  0.1540E-10  0.3580E-10  0.4280E-10  0.4380E-10  0.4350E-10  0.4210E-10  0.3940E-10  0.3460E-10  0.2950E-10  0.2650E-10
WAVELENGTH(A)= 
    53.644
 7 14 t 
excit   
    11.700     17.500     29.100     58.200    117.000    291.000    582.000    874.000   1170.000   1750.000   2910.000   5820.000  11700.000  17500.000 
  0.1000E+11  0.1530E-17  0.9330E-15  0.1440E-12  0.5390E-11  0.2760E-10  0.5940E-10  0.6930E-10  0.7050E-10  0.7000E-10  0.6800E-10  0.6410E-10  0.5720E-10  0.4950E-10  0.4490E-10
  0.1000E+12  0.1460E-17  0.8750E-15  0.1330E-12  0.4700E-11  0.2070E-10  0.4020E-10  0.4590E-10  0.4660E-10  0.4630E-10  0.4510E-10  0.4270E-10  0.3860E-10  0.3410E-10  0.3140E-10
  0.1000E+13  0.1190E-17  0.6770E-15  0.9730E-13  0.3160E-11  0.1360E-10  0.2770E-10  0.3200E-10  0.3250E-10  0.3220E-10  0.3120E-10  0.2940E-10  0.2610E-10  0.2270E-10  0.2070E-10
  0.1000E+14  0.1010E-17  0.5320E-15  0.7180E-13  0.2340E-11  0.1120E-10  0.2440E-10  0.2860E-10  0.2910E-10  0.2880E-10  0.2780E-10  0.2600E-10  0.2280E-10  0.1950E-10  0.1760E-10
  0.1000E+15  0.9400E-18  0.4820E-15  0.6390E-13  0.2160E-11  0.1090E-10  0.2400E-10  0.2820E-10  0.2860E-10  0.2830E-10  0.2740E-10  0.2550E-10  0.2240E-10  0.1910E-10  0.1710E-10
  0.1000E+16  0.9300E-18  0.4760E-15  0.6290E-13  0.2140E-11  0.1090E-10  0.2400E-10  0.2810E-10  0.2860E-10  0.2830E-10  0.2730E-10  0.2550E-10  0.2230E-10  0.1900E-10  0.1710E-10
  0.1000E+17  0.9290E-18  0.4750E-15  0.6280E-13  0.2140E-11  0.1090E-10  0.2400E-10  0.2810E-10  0.2860E-10  0.2830E-10  0.2730E-10  0.2550E-10  0.2230E-10  0.1900E-10  0.1710E-10
WAVELENGTH(A)= 
    54.123
 7 14 t 
excit   
    11.700     17.500     29.100     58.200    117.000    291.000    582.000    874.000   1170.000   1750.000   2910.000   5820.000  11700.000  17500.000 
  0.1000E+11  0.2490E-18  0.1800E-15  0.3190E-13  0.1400E-11  0.9350E-11  0.2680E-10  0.3370E-10  0.3470E-10  0.3430E-10  0.3280E-10  0.3000E-10  0.2520E-10  0.2040E-10  0.1780E-10
  0.1000E+12  0.3980E-18  0.2860E-15  0.5090E-13  0.2500E-11  0.1860E-10  0.4850E-10  0.5850E-10  0.5980E-10  0.5920E-10  0.5700E-10  0.5300E-10  0.4580E-10  0.3810E-10  0.3370E-10
  0.1000E+13  0.9350E-18  0.6280E-15  0.1040E-12  0.4130E-11  0.2060E-10  0.4400E-10  0.5150E-10  0.5250E-10  0.5200E-10  0.5040E-10  0.4730E-10  0.4190E-10  0.3610E-10  0.3270E-10
  0.1000E+14  0.1040E-17  0.6440E-15  0.9900E-13  0.3530E-11  0.1770E-10  0.3940E-10  0.4650E-10  0.4740E-10  0.4690E-10  0.4530E-10  0.4230E-10  0.3710E-10  0.3160E-10  0.2840E-10
  0.1000E+15  0.9710E-18  0.5880E-15  0.8900E-13  0.3290E-11  0.1710E-10  0.3870E-10  0.4580E-10  0.4670E-10  0.4620E-10  0.4460E-10  0.4160E-10  0.3640E-10  0.3090E-10  0.2770E-10
  0.1000E+16  0.9600E-18  0.5800E-15  0.8770E-13  0.3260E-11  0.1710E-10  0.3860E-10  0.4570E-10  0.4660E-10  0.4620E-10  0.4450E-10  0.4150E-10  0.3630E-10  0.3080E-10  0.2760E-10
  0.1000E+17  0.9590E-18  0.5790E-15  0.8750E-13  0.3260E-11  0.1710E-10  0.3860E-10  0.4570E-10  0.4660E-10  0.4620E-10  0.4450E-10  0.4150E-10  0.3630E-10  0.3080E-10  0.2760E-10
WAVELENGTH(A)= 
    54.429
 7 14 t 
excit   
    11.700     17.500     29.100     58.200    117.000    291.000    582.000    874.000   1170.000   1750.000   2910.000   5820.000  11700.000  17500.000 
  0.1000E+11  0.1510E-17  0.8330E-15  0.1190E-12  0.4230E-11  0.2080E-10  0.4370E-10  0.5040E-10  0.5140E-10  0.5080E-10  0.4920E-10  0.4630E-10  0.4120E-10  0.3560E-10  0.3220E-10
  0.1000E+12  0.1410E-17  0.7650E-15  0.1080E-12  0.3550E-11  0.1420E-10  0.2480E-10  0.2760E-10  0.2800E-10  0.2770E-10  0.2700E-10  0.2580E-10  0.2360E-10  0.2120E-10  0.1970E-10
  0.1000E+13  0.9930E-18  0.5110E-15  0.6810E-13  0.1930E-11  0.6970E-11  0.1310E-10  0.1500E-10  0.1520E-10  0.1500E-10  0.1450E-10  0.1370E-10  0.1220E-10  0.1060E-10  0.9720E-11
  0.1000E+14  0.6430E-18  0.3070E-15  0.3850E-13  0.1130E-11  0.5130E-11  0.1090E-10  0.1280E-10  0.1300E-10  0.1280E-10  0.1230E-10  0.1150E-10  0.1000E-10  0.8530E-11  0.7660E-11
  0.1000E+15  0.5330E-18  0.2480E-15  0.3050E-13  0.9890E-12  0.4890E-11  0.1070E-10  0.1250E-10  0.1270E-10  0.1250E-10  0.1210E-10  0.1120E-10  0.9770E-11  0.8270E-11  0.7410E-11
  0.1000E+16  0.5180E-18  0.2400E-15  0.2960E-13  0.9720E-12  0.4870E-11  0.1070E-10  0.1250E-10  0.1270E-10  0.1250E-10  0.1200E-10  0.1120E-10  0.9740E-11  0.8240E-11  0.7380E-11
  0.1000E+17  0.5170E-18  0.2400E-15  0.2950E-13  0.9710E-12  0.4860E-11  0.1070E-10  0.1250E-10  0.1270E-10  0.1250E-10  0.1200E-10  0.1120E-10  0.9740E-11  0.8240E-11  0.7380E-11
WAVELENGTH(A)= 
    54.569
 7 14 t 
excit   
    11.700     17.500     29.100     58.200    117.000    291.000    582.000    874.000   1170.000   1750.000   2910.000   5820.000  11700.000  17500.000 
  0.1000E+11  0.5960E-18  0.3860E-15  0.6260E-13  0.2450E-11  0.1290E-10  0.2880E-10  0.3380E-10  0.3450E-10  0.3410E-10  0.3310E-10  0.3100E-10  0.2740E-10  0.2360E-10  0.2120E-10
  0.1000E+12  0.5630E-18  0.3600E-15  0.5770E-13  0.2180E-11  0.1080E-10  0.2380E-10  0.2800E-10  0.2850E-10  0.2820E-10  0.2730E-10  0.2540E-10  0.2230E-10  0.1910E-10  0.1720E-10
  0.1000E+13  0.4870E-18  0.2970E-15  0.4590E-13  0.1900E-11  0.1140E-10  0.2710E-10  0.3220E-10  0.3280E-10  0.3250E-10  0.3120E-10  0.2890E-10  0.2510E-10  0.2110E-10  0.1860E-10
  0.1000E+14  0.7210E-18  0.4120E-15  0.6020E-13  0.2340E-11  0.1250E-10  0.2830E-10  0.3340E-10  0.3400E-10  0.3360E-10  0.3240E-10  0.3010E-10  0.2630E-10  0.2240E-10  0.1990E-10
  0.1000E+15  0.8790E-18  0.4820E-15  0.6740E-13  0.2400E-11  0.1260E-10  0.2830E-10  0.3340E-10  0.3400E-10  0.3360E-10  0.3240E-10  0.3010E-10  0.2630E-10  0.2240E-10  0.2000E-10
  0.1000E+16  0.9000E-18  0.4900E-15  0.6810E-13  0.2400E-11  0.1260E-10  0.2830E-10  0.3340E-10  0.3400E-10  0.3360E-10  0.3240E-10  0.3010E-10  0.2630E-10  0.2240E-10  0.2000E-10
  0.1000E+17  0.9020E-18  0.4900E-15  0.6820E-13  0.2400E-11  0.1260E-10  0.2830E-10  0.3340E-10  0.3400E-10  0.3360E-10  0.3240E-10  0.3010E-10  0.2630E-10  0.2240E-10  0.2000E-10
WAVELENGTH(A)= 
    54.896
 7 14 t 
excit   
    11.700     17.500     29.100     58.200    117.000    291.000    582.000    874.000   1170.000   1750.000   2910.000   5820.000  11700.000  17500.000 
  0.1000E+11  0.1880E-17  0.1170E-14  0.1840E-12  0.7020E-11  0.3600E-10  0.7730E-10  0.9000E-10  0.9140E-10  0.9120E-10  0.8790E-10  0.8270E-10  0.7390E-10  0.6350E-10  0.5760E-10
  0.1000E+12  0.1750E-17  0.1080E-14  0.1670E-12  0.5920E-11  0.2490E-10  0.4540E-10  0.5100E-10  0.5160E-10  0.5150E-10  0.4990E-10  0.4750E-10  0.4360E-10  0.3870E-10  0.3600E-10
  0.1000E+13  0.1260E-17  0.7320E-15  0.1070E-12  0.3360E-11  0.1340E-10  0.2680E-10  0.3110E-10  0.3150E-10  0.3130E-10  0.3010E-10  0.2820E-10  0.2510E-10  0.2170E-10  0.1970E-10
  0.1000E+14  0.9070E-18  0.4910E-15  0.6790E-13  0.2230E-11  0.1080E-10  0.2370E-10  0.2780E-10  0.2820E-10  0.2810E-10  0.2690E-10  0.2500E-10  0.2200E-10  0.1860E-10  0.1670E-10
  0.1000E+15  0.8200E-18  0.4310E-15  0.5840E-13  0.2030E-11  0.1040E-10  0.2330E-10  0.2740E-10  0.2790E-10  0.2770E-10  0.2650E-10  0.2470E-10  0.2160E-10  0.1820E-10  0.1640E-10
  0.1000E+16  0.8080E-18  0.4230E-15  0.5720E-13  0.2000E-11  0.1040E-10  0.2330E-10  0.2740E-10  0.2780E-10  0.2760E-10  0.2650E-10  0.2460E-10  0.2160E-10  0.1820E-10  0.1630E-10
  0.1000E+17  0.8070E-18  0.4220E-15  0.5700E-13  0.2000E-11  0.1040E-10  0.2330E-10  0.2740E-10  0.2780E-10  0.2760E-10  0.2650E-10  0.2460E-10  0.2160E-10  0.1820E-10  0.1630E-10
WAVELENGTH(A)= 
    55.040
 7 14 t 
excit   
    11.700     17.500     29.100     58.200    117.000    291.000    582.000    874.000   1170.000   1750.000   2910.000   5820.000  11700.000  17500.000 
  0.1000E+11  0.1400E-17  0.7190E-15  0.9710E-13  0.3300E-11  0.1590E-10  0.3300E-10  0.3810E-10  0.3860E-10  0.3810E-10  0.3700E-10  0.3460E-10  0.3070E-10  0.2640E-10  0.2390E-10
  0.1000E+12  0.1300E-17  0.6610E-15  0.8790E-13  0.2770E-11  0.1080E-10  0.1870E-10  0.2070E-10  0.2090E-10  0.2070E-10  0.2020E-10  0.1920E-10  0.1750E-10  0.1570E-10  0.1460E-10
  0.1000E+13  0.9220E-18  0.4420E-15  0.5550E-13  0.1500E-11  0.5160E-11  0.9400E-11  0.1070E-10  0.1080E-10  0.1060E-10  0.1030E-10  0.9650E-11  0.8630E-11  0.7550E-11  0.6920E-11
  0.1000E+14  0.5710E-18  0.2540E-15  0.2980E-13  0.8240E-12  0.3590E-11  0.7520E-11  0.8740E-11  0.8840E-11  0.8710E-11  0.8390E-11  0.7770E-11  0.6800E-11  0.5770E-11  0.5190E-11
  0.1000E+15  0.4480E-18  0.1940E-15  0.2250E-13  0.6980E-12  0.3380E-11  0.7290E-11  0.8510E-11  0.8610E-11  0.8480E-11  0.8160E-11  0.7550E-11  0.6580E-11  0.5550E-11  0.4970E-11
  0.1000E+16  0.4320E-18  0.1860E-15  0.2160E-13  0.6840E-12  0.3360E-11  0.7270E-11  0.8490E-11  0.8590E-11  0.8460E-11  0.8140E-11  0.7520E-11  0.6550E-11  0.5530E-11  0.4950E-11
  0.1000E+17  0.4300E-18  0.1860E-15  0.2150E-13  0.6820E-12  0.3360E-11  0.7270E-11  0.8490E-11  0.8590E-11  0.8460E-11  0.8140E-11  0.7520E-11  0.6550E-11  0.5530E-11  0.4940E-11
WAVELENGTH(A)= 
    55.146
 7 14 t 
excit   
    11.700     17.500     29.100     58.200    117.000    291.000    582.000    874.000   1170.000   1750.000   2910.000   5820.000  11700.000  17500.000 
  0.1000E+11  0.4430E-17  0.2250E-14  0.3010E-12  0.1010E-10  0.4880E-10  0.1010E-09  0.1160E-09  0.1170E-09  0.1160E-09  0.1120E-09  0.1050E-09  0.9360E-10  0.8070E-10  0.7300E-10
  0.1000E+12  0.4120E-17  0.2060E-14  0.2720E-12  0.8500E-11  0.3300E-10  0.5640E-10  0.6210E-10  0.6260E-10  0.6210E-10  0.6060E-10  0.5770E-10  0.5280E-10  0.4740E-10  0.4410E-10
  0.1000E+13  0.2890E-17  0.1370E-14  0.1700E-12  0.4520E-11  0.1530E-10  0.2750E-10  0.3100E-10  0.3130E-10  0.3090E-10  0.2990E-10  0.2820E-10  0.2520E-10  0.2210E-10  0.2030E-10
  0.1000E+14  0.1740E-17  0.7620E-15  0.8880E-13  0.2410E-11  0.1040E-10  0.2170E-10  0.2510E-10  0.2540E-10  0.2500E-10  0.2410E-10  0.2240E-10  0.1960E-10  0.1670E-10  0.1500E-10
  0.1000E+15  0.1340E-17  0.5710E-15  0.6570E-13  0.2020E-11  0.9760E-11  0.2100E-10  0.2440E-10  0.2470E-10  0.2440E-10  0.2340E-10  0.2170E-10  0.1890E-10  0.1600E-10  0.1430E-10
  0.1000E+16  0.1280E-17  0.5460E-15  0.6280E-13  0.1980E-11  0.9690E-11  0.2090E-10  0.2430E-10  0.2460E-10  0.2430E-10  0.2340E-10  0.2160E-10  0.1880E-10  0.1590E-10  0.1420E-10
  0.1000E+17  0.1280E-17  0.5430E-15  0.6250E-13  0.1970E-11  0.9690E-11  0.2090E-10  0.2430E-10  0.2460E-10  0.2430E-10  0.2340E-10  0.2160E-10  0.1880E-10  0.1590E-10  0.1420E-10
WAVELENGTH(A)= 
    55.256
 7 14 t 
excit   
    11.700     17.500     29.100     58.200    117.000    291.000    582.000    874.000   1170.000   1750.000   2910.000   5820.000  11700.000  17500.000 
  0.1000E+11  0.1510E-17  0.7560E-15  0.1000E-12  0.3340E-11  0.1600E-10  0.3300E-10  0.3790E-10  0.3850E-10  0.3810E-10  0.3680E-10  0.3460E-10  0.3060E-10  0.2640E-10  0.2400E-10
  0.1000E+12  0.1400E-17  0.6950E-15  0.9050E-13  0.2810E-11  0.1090E-10  0.1860E-10  0.2050E-10  0.2070E-10  0.2050E-10  0.2000E-10  0.1910E-10  0.1740E-10  0.1560E-10  0.1450E-10
  0.1000E+13  0.9900E-18  0.4630E-15  0.5690E-13  0.1500E-11  0.5080E-11  0.9140E-11  0.1030E-10  0.1040E-10  0.1030E-10  0.9970E-11  0.9390E-11  0.8380E-11  0.7350E-11  0.6760E-11
  0.1000E+14  0.6020E-18  0.2610E-15  0.3000E-13  0.8110E-12  0.3480E-11  0.7240E-11  0.8370E-11  0.8490E-11  0.8380E-11  0.8050E-11  0.7490E-11  0.6530E-11  0.5550E-11  0.5010E-11
  0.1000E+15  0.4650E-18  0.1960E-15  0.2230E-13  0.6800E-12  0.3270E-11  0.7010E-11  0.8140E-11  0.8260E-11  0.8150E-11  0.7820E-11  0.7260E-11  0.6300E-11  0.5330E-11  0.4780E-11
  0.1000E+16  0.4460E-18  0.1880E-15  0.2140E-13  0.6660E-12  0.3250E-11  0.6990E-11  0.8120E-11  0.8240E-11  0.8130E-11  0.7800E-11  0.7240E-11  0.6280E-11  0.5310E-11  0.4760E-11
  0.1000E+17  0.4440E-18  0.1870E-15  0.2130E-13  0.6650E-12  0.3250E-11  0.6980E-11  0.8110E-11  0.8230E-11  0.8130E-11  0.7790E-11  0.7240E-11  0.6280E-11  0.5310E-11  0.4760E-11
WAVELENGTH(A)= 
    55.918
 7 14 t 
excit   
    11.700     17.500     29.100     58.200    117.000    291.000    582.000    874.000   1170.000   1750.000   2910.000   5820.000  11700.000  17500.000 
  0.1000E+11  0.9110E-18  0.5560E-15  0.8550E-13  0.3210E-11  0.1640E-10  0.3540E-10  0.4130E-10  0.4200E-10  0.4170E-10  0.4050E-10  0.3820E-10  0.3400E-10  0.2950E-10  0.2670E-10
  0.1000E+12  0.8670E-18  0.5210E-15  0.7910E-13  0.2800E-11  0.1230E-10  0.2390E-10  0.2730E-10  0.2770E-10  0.2760E-10  0.2680E-10  0.2550E-10  0.2300E-10  0.2030E-10  0.1870E-10
  0.1000E+13  0.7110E-18  0.4030E-15  0.5800E-13  0.1880E-11  0.8100E-11  0.1650E-10  0.1910E-10  0.1940E-10  0.1920E-10  0.1860E-10  0.1750E-10  0.1560E-10  0.1350E-10  0.1230E-10
  0.1000E+14  0.6020E-18  0.3170E-15  0.4270E-13  0.1390E-11  0.6700E-11  0.1460E-10  0.1700E-10  0.1730E-10  0.1710E-10  0.1660E-10  0.1550E-10  0.1360E-10  0.1160E-10  0.1050E-10
  0.1000E+15  0.5600E-18  0.2870E-15  0.3810E-13  0.1290E-11  0.6490E-11  0.1430E-10  0.1680E-10  0.1710E-10  0.1690E-10  0.1630E-10  0.1520E-10  0.1330E-10  0.1140E-10  0.1020E-10
  0.1000E+16  0.5540E-18  0.2830E-15  0.3750E-13  0.1280E-11  0.6470E-11  0.1430E-10  0.1680E-10  0.1700E-10  0.1690E-10  0.1630E-10  0.1520E-10  0.1330E-10  0.1130E-10  0.1020E-10
  0.1000E+17  0.5530E-18  0.2830E-15  0.3740E-13  0.1280E-11  0.6470E-11  0.1430E-10  0.1680E-10  0.1700E-10  0.1690E-10  0.1630E-10  0.1520E-10  0.1330E-10  0.1130E-10  0.1020E-10
WAVELENGTH(A)= 
    56.688
 7 14 t 
excit   
    11.700     17.500     29.100     58.200    117.000    291.000    582.000    874.000   1170.000   1750.000   2910.000   5820.000  11700.000  17500.000 
  0.1000E+11  0.5750E-17  0.2460E-14  0.2850E-12  0.8660E-11  0.3960E-10  0.7950E-10  0.9040E-10  0.9140E-10  0.9040E-10  0.8720E-10  0.8180E-10  0.7240E-10  0.6240E-10  0.5650E-10
  0.1000E+12  0.5360E-17  0.2260E-14  0.2580E-12  0.7310E-11  0.2740E-10  0.4690E-10  0.5160E-10  0.5190E-10  0.5130E-10  0.4980E-10  0.4730E-10  0.4290E-10  0.3820E-10  0.3540E-10
  0.1000E+13  0.3860E-17  0.1540E-14  0.1660E-12  0.4170E-11  0.1500E-10  0.2810E-10  0.3190E-10  0.3210E-10  0.3170E-10  0.3050E-10  0.2850E-10  0.2510E-10  0.2170E-10  0.1970E-10
  0.1000E+14  0.2810E-17  0.1040E-14  0.1060E-12  0.2800E-11  0.1210E-10  0.2490E-10  0.2860E-10  0.2880E-10  0.2840E-10  0.2730E-10  0.2530E-10  0.2200E-10  0.1870E-10  0.1680E-10
  0.1000E+15  0.2560E-17  0.9210E-15  0.9200E-13  0.2550E-11  0.1170E-10  0.2450E-10  0.2820E-10  0.2840E-10  0.2800E-10  0.2690E-10  0.2490E-10  0.2160E-10  0.1830E-10  0.1640E-10
  0.1000E+16  0.2530E-17  0.9050E-15  0.9010E-13  0.2520E-11  0.1170E-10  0.2440E-10  0.2810E-10  0.2840E-10  0.2800E-10  0.2680E-10  0.2480E-10  0.2160E-10  0.1830E-10  0.1630E-10
  0.1000E+17  0.2520E-17  0.9030E-15  0.8990E-13  0.2520E-11  0.1170E-10  0.2440E-10  0.2810E-10  0.2840E-10  0.2800E-10  0.2680E-10  0.2480E-10  0.2160E-10  0.1820E-10  0.1630E-10
WAVELENGTH(A)= 
    58.314
 7 14 t 
excit   
    11.700     17.500     29.100     58.200    117.000    291.000    582.000    874.000   1170.000   1750.000   2910.000   5820.000  11700.000  17500.000 
  0.1000E+11  0.2780E-17  0.1190E-14  0.1380E-12  0.4190E-11  0.1920E-10  0.3850E-10  0.4380E-10  0.4420E-10  0.4370E-10  0.4220E-10  0.3960E-10  0.3500E-10  0.3020E-10  0.2730E-10
  0.1000E+12  0.2600E-17  0.1090E-14  0.1250E-12  0.3540E-11  0.1330E-10  0.2270E-10  0.2500E-10  0.2510E-10  0.2480E-10  0.2410E-10  0.2290E-10  0.2080E-10  0.1850E-10  0.1710E-10
  0.1000E+13  0.1870E-17  0.7440E-15  0.8040E-13  0.2020E-11  0.7260E-11  0.1360E-10  0.1540E-10  0.1550E-10  0.1530E-10  0.1470E-10  0.1380E-10  0.1220E-10  0.1050E-10  0.9530E-11
  0.1000E+14  0.1360E-17  0.5050E-15  0.5150E-13  0.1360E-11  0.5870E-11  0.1200E-10  0.1380E-10  0.1400E-10  0.1380E-10  0.1320E-10  0.1220E-10  0.1070E-10  0.9040E-11  0.8110E-11
  0.1000E+15  0.1240E-17  0.4460E-15  0.4450E-13  0.1240E-11  0.5680E-11  0.1180E-10  0.1360E-10  0.1380E-10  0.1360E-10  0.1300E-10  0.1200E-10  0.1050E-10  0.8850E-11  0.7930E-11
  0.1000E+16  0.1220E-17  0.4380E-15  0.4360E-13  0.1220E-11  0.5660E-11  0.1180E-10  0.1360E-10  0.1370E-10  0.1350E-10  0.1300E-10  0.1200E-10  0.1050E-10  0.8830E-11  0.7910E-11
  0.1000E+17  0.1220E-17  0.4370E-15  0.4350E-13  0.1220E-11  0.5660E-11  0.1180E-10  0.1360E-10  0.1370E-10  0.1350E-10  0.1300E-10  0.1200E-10  0.1050E-10  0.8830E-11  0.7900E-11
WAVELENGTH(A)= 
  1257.480
 7 14 t 
excit   
    11.700     17.500     29.100     58.200    117.000    291.000    582.000    874.000   1170.000   1750.000   2910.000   5820.000  11700.000  17500.000 
  0.1000E+11  0.6230E-12  0.7840E-12  0.1000E-11  0.3470E-11  0.1480E-10  0.3310E-10  0.3930E-10  0.4030E-10  0.4010E-10  0.3900E-10  0.3670E-10  0.3260E-10  0.2810E-10  0.2540E-10
  0.1000E+12  0.6590E-12  0.8290E-12  0.1050E-11  0.3290E-11  0.1160E-10  0.2120E-10  0.2380E-10  0.2420E-10  0.2420E-10  0.2380E-10  0.2290E-10  0.2110E-10  0.1900E-10  0.1770E-10
  0.1000E+13  0.7180E-12  0.8780E-12  0.1060E-11  0.2150E-11  0.3970E-11  0.4780E-11  0.4920E-11  0.4940E-11  0.4940E-11  0.4930E-11  0.4900E-11  0.4830E-11  0.4730E-11  0.4650E-11
  0.1000E+14  0.2920E-12  0.3350E-12  0.3730E-12  0.4540E-12  0.5160E-12  0.5350E-12  0.5390E-12  0.5400E-12  0.5400E-12  0.5410E-12  0.5410E-12  0.5410E-12  0.5400E-12  0.5390E-12
  0.1000E+15  0.4030E-13  0.4490E-13  0.4840E-13  0.5100E-13  0.5300E-13  0.5400E-13  0.5430E-13  0.5440E-13  0.5450E-13  0.5450E-13  0.5460E-13  0.5460E-13  0.5460E-13  0.5460E-13
  0.1000E+16  0.4180E-14  0.4650E-14  0.4990E-14  0.5160E-14  0.5310E-14  0.5410E-14  0.5440E-14  0.5450E-14  0.5450E-14  0.5460E-14  0.5460E-14  0.5460E-14  0.5470E-14  0.5460E-14
  0.1000E+17  0.4200E-15  0.4670E-15  0.5000E-15  0.5170E-15  0.5320E-15  0.5410E-15  0.5440E-15  0.5440E-15  0.5450E-15  0.5450E-15  0.5460E-15  0.5460E-15  0.5470E-15  0.5460E-15
WAVELENGTH(A)= 
  1318.600
 7 14 t 
excit   
    11.700     17.500     29.100     58.200    117.000    291.000    582.000    874.000   1170.000   1750.000   2910.000   5820.000  11700.000  17500.000 
  0.1000E+11  0.1120E-11  0.1420E-11  0.1780E-11  0.3770E-11  0.1230E-10  0.2620E-10  0.3090E-10  0.3160E-10  0.3140E-10  0.3040E-10  0.2850E-10  0.2520E-10  0.2150E-10  0.1940E-10
  0.1000E+12  0.1080E-11  0.1360E-11  0.1690E-11  0.3480E-11  0.9800E-11  0.1660E-10  0.1830E-10  0.1850E-10  0.1850E-10  0.1820E-10  0.1760E-10  0.1640E-10  0.1490E-10  0.1390E-10
  0.1000E+13  0.7660E-12  0.9300E-12  0.1110E-11  0.1770E-11  0.2620E-11  0.2890E-11  0.2930E-11  0.2940E-11  0.2940E-11  0.2940E-11  0.2940E-11  0.2930E-11  0.2900E-11  0.2880E-11
  0.1000E+14  0.1960E-12  0.2220E-12  0.2430E-12  0.2750E-12  0.2920E-12  0.2970E-12  0.2980E-12  0.2990E-12  0.2990E-12  0.2990E-12  0.2990E-12  0.2990E-12  0.3000E-12  0.3000E-12
  0.1000E+15  0.2360E-13  0.2600E-13  0.2770E-13  0.2870E-13  0.2940E-13  0.2970E-13  0.2980E-13  0.2980E-13  0.2980E-13  0.2990E-13  0.2990E-13  0.2990E-13  0.2990E-13  0.2990E-13
  0.1000E+16  0.2410E-14  0.2650E-14  0.2810E-14  0.2890E-14  0.2940E-14  0.2970E-14  0.2980E-14  0.2980E-14  0.2980E-14  0.2990E-14  0.2990E-14  0.2990E-14  0.2990E-14  0.2990E-14
  0.1000E+17  0.2420E-15  0.2650E-15  0.2810E-15  0.2890E-15  0.2940E-15  0.2970E-15  0.2980E-15  0.2980E-15  0.2980E-15  0.2990E-15  0.2990E-15  0.2990E-15  0.2990E-15  0.2990E-15
WAVELENGTH(A)= 
  1569.380
 7 14 t 
excit   
    11.700     17.500     29.100     58.200    117.000    291.000    582.000    874.000   1170.000   1750.000   2910.000   5820.000  11700.000  17500.000 
  0.1000E+11  0.4380E-11  0.5280E-11  0.6270E-11  0.1010E-10  0.2590E-10  0.5280E-10  0.6190E-10  0.6300E-10  0.6240E-10  0.6020E-10  0.5620E-10  0.4920E-10  0.4180E-10  0.3750E-10
  0.1000E+12  0.4110E-11  0.4950E-11  0.5850E-11  0.9240E-11  0.2020E-10  0.2970E-10  0.3160E-10  0.3180E-10  0.3170E-10  0.3140E-10  0.3060E-10  0.2910E-10  0.2710E-10  0.2570E-10
  0.1000E+13  0.2250E-11  0.2590E-11  0.2900E-11  0.3420E-11  0.3700E-11  0.3640E-11  0.3620E-11  0.3620E-11  0.3620E-11  0.3630E-11  0.3650E-11  0.3670E-11  0.3710E-11  0.3730E-11
  0.1000E+14  0.3200E-12  0.3430E-12  0.3560E-12  0.3510E-12  0.3410E-12  0.3370E-12  0.3360E-12  0.3360E-12  0.3360E-12  0.3360E-12  0.3360E-12  0.3370E-12  0.3380E-12  0.3390E-12
  0.1000E+15  0.3090E-13  0.3260E-13  0.3340E-13  0.3350E-13  0.3330E-13  0.3320E-13  0.3320E-13  0.3320E-13  0.3320E-13  0.3320E-13  0.3320E-13  0.3320E-13  0.3320E-13  0.3330E-13
  0.1000E+16  0.3070E-14  0.3220E-14  0.3310E-14  0.3330E-14  0.3320E-14  0.3320E-14  0.3320E-14  0.3320E-14  0.3320E-14  0.3320E-14  0.3320E-14  0.3320E-14  0.3320E-14  0.3320E-14
  0.1000E+17  0.3070E-15  0.3220E-15  0.3300E-15  0.3330E-15  0.3320E-15  0.3320E-15  0.3320E-15  0.3320E-15  0.3310E-15  0.3320E-15  0.3310E-15  0.3310E-15  0.3320E-15  0.3320E-15
WAVELENGTH(A)= 
  2010.580
 7 14 t 
excit   
    11.700     17.500     29.100     58.200    117.000    291.000    582.000    874.000   1170.000   1750.000   2910.000   5820.000  11700.000  17500.000 
  0.1000E+11  0.1030E-11  0.1290E-11  0.1650E-11  0.5720E-11  0.2430E-10  0.5450E-10  0.6480E-10  0.6640E-10  0.6610E-10  0.6420E-10  0.6040E-10  0.5370E-10  0.4620E-10  0.4180E-10
  0.1000E+12  0.1090E-11  0.1370E-11  0.1740E-11  0.5430E-11  0.1910E-10  0.3500E-10  0.3930E-10  0.3990E-10  0.3980E-10  0.3910E-10  0.3760E-10  0.3480E-10  0.3140E-10  0.2920E-10
  0.1000E+13  0.1180E-11  0.1450E-11  0.1750E-11  0.3540E-11  0.6540E-11  0.7860E-11  0.8100E-11  0.8140E-11  0.8140E-11  0.8130E-11  0.8080E-11  0.7960E-11  0.7790E-11  0.7660E-11
  0.1000E+14  0.4820E-12  0.5530E-12  0.6140E-12  0.7480E-12  0.8490E-12  0.8800E-12  0.8870E-12  0.8890E-12  0.8900E-12  0.8910E-12  0.8910E-12  0.8900E-12  0.8890E-12  0.8880E-12
  0.1000E+15  0.6630E-13  0.7400E-13  0.7970E-13  0.8400E-13  0.8730E-13  0.8890E-13  0.8950E-13  0.8960E-13  0.8970E-13  0.8980E-13  0.8980E-13  0.8990E-13  0.8990E-13  0.8990E-13
  0.1000E+16  0.6890E-14  0.7660E-14  0.8210E-14  0.8500E-14  0.8750E-14  0.8900E-14  0.8950E-14  0.8970E-14  0.8970E-14  0.8980E-14  0.8990E-14  0.9000E-14  0.9000E-14  0.9000E-14
  0.1000E+17  0.6920E-15  0.7690E-15  0.8240E-15  0.8510E-15  0.8750E-15  0.8900E-15  0.8950E-15  0.8970E-15  0.8970E-15  0.8980E-15  0.8990E-15  0.9000E-15  0.9000E-15  0.9000E-15
WAVELENGTH(A)= 
  2031.860
 7 14 t 
excit   
    11.700     17.500     29.100     58.200    117.000    291.000    582.000    874.000   1170.000   1750.000   2910.000   5820.000  11700.000  17500.000 
  0.1000E+11  0.5850E-11  0.7010E-11  0.8920E-11  0.3660E-10  0.1510E-09  0.3160E-09  0.3670E-09  0.3730E-09  0.3710E-09  0.3590E-09  0.3370E-09  0.3000E-09  0.2580E-09  0.2340E-09
  0.1000E+12  0.6000E-11  0.7180E-11  0.9040E-11  0.3250E-10  0.1050E-09  0.1740E-09  0.1900E-09  0.1920E-09  0.1910E-09  0.1870E-09  0.1800E-09  0.1670E-09  0.1510E-09  0.1420E-09
  0.1000E+13  0.6310E-11  0.7370E-11  0.8760E-11  0.1900E-10  0.3390E-10  0.3990E-10  0.4080E-10  0.4090E-10  0.4080E-10  0.4050E-10  0.4010E-10  0.3930E-10  0.3800E-10  0.3720E-10
  0.1000E+14  0.3090E-11  0.3280E-11  0.3450E-11  0.4090E-11  0.4460E-11  0.4530E-11  0.4540E-11  0.4540E-11  0.4540E-11  0.4540E-11  0.4530E-11  0.4530E-11  0.4510E-11  0.4500E-11
  0.1000E+15  0.4430E-12  0.4470E-12  0.4430E-12  0.4450E-12  0.4540E-12  0.4570E-12  0.4570E-12  0.4570E-12  0.4570E-12  0.4570E-12  0.4560E-12  0.4570E-12  0.4560E-12  0.4560E-12
  0.1000E+16  0.4610E-13  0.4610E-13  0.4530E-13  0.4480E-13  0.4550E-13  0.4570E-13  0.4570E-13  0.4570E-13  0.4580E-13  0.4570E-13  0.4570E-13  0.4570E-13  0.4560E-13  0.4560E-13
  0.1000E+17  0.4630E-14  0.4620E-14  0.4540E-14  0.4480E-14  0.4550E-14  0.4570E-14  0.4570E-14  0.4570E-14  0.4580E-14  0.4570E-14  0.4570E-14  0.4570E-14  0.4560E-14  0.4560E-14
WAVELENGTH(A)= 
  2171.510
 7 14 t 
excit   
    11.700     17.500     29.100     58.200    117.000    291.000    582.000    874.000   1170.000   1750.000   2910.000   5820.000  11700.000  17500.000 
  0.1000E+11  0.1220E-11  0.1550E-11  0.1940E-11  0.4120E-11  0.1340E-10  0.2860E-10  0.3380E-10  0.3450E-10  0.3430E-10  0.3320E-10  0.3110E-10  0.2750E-10  0.2350E-10  0.2120E-10
  0.1000E+12  0.1170E-11  0.1480E-11  0.1850E-11  0.3800E-11  0.1070E-10  0.1810E-10  0.2000E-10  0.2020E-10  0.2020E-10  0.1990E-10  0.1920E-10  0.1790E-10  0.1630E-10  0.1520E-10
  0.1000E+13  0.8370E-12  0.1020E-11  0.1210E-11  0.1940E-11  0.2870E-11  0.3160E-11  0.3200E-11  0.3210E-11  0.3220E-11  0.3220E-11  0.3210E-11  0.3200E-11  0.3170E-11  0.3150E-11
  0.1000E+14  0.2140E-12  0.2420E-12  0.2650E-12  0.3000E-12  0.3190E-12  0.3250E-12  0.3260E-12  0.3260E-12  0.3260E-12  0.3270E-12  0.3270E-12  0.3270E-12  0.3280E-12  0.3280E-12
  0.1000E+15  0.2580E-13  0.2840E-13  0.3030E-13  0.3140E-13  0.3210E-13  0.3250E-13  0.3260E-13  0.3260E-13  0.3260E-13  0.3270E-13  0.3270E-13  0.3270E-13  0.3270E-13  0.3270E-13
  0.1000E+16  0.2630E-14  0.2890E-14  0.3070E-14  0.3150E-14  0.3210E-14  0.3250E-14  0.3260E-14  0.3260E-14  0.3260E-14  0.3260E-14  0.3270E-14  0.3270E-14  0.3270E-14  0.3270E-14
  0.1000E+17  0.2640E-15  0.2900E-15  0.3070E-15  0.3160E-15  0.3210E-15  0.3240E-15  0.3260E-15  0.3260E-15  0.3260E-15  0.3260E-15  0.3270E-15  0.3270E-15  0.3270E-15  0.3270E-15
WAVELENGTH(A)= 
  2643.060
 7 14 t 
excit   
    11.700     17.500     29.100     58.200    117.000    291.000    582.000    874.000   1170.000   1750.000   2910.000   5820.000  11700.000  17500.000 
  0.1000E+11  0.2860E-12  0.3590E-12  0.5360E-12  0.4300E-11  0.1980E-10  0.4240E-10  0.4950E-10  0.5020E-10  0.4990E-10  0.4810E-10  0.4500E-10  0.3980E-10  0.3410E-10  0.3080E-10
  0.1000E+12  0.4850E-12  0.6300E-12  0.8900E-12  0.4490E-11  0.1710E-10  0.3300E-10  0.3760E-10  0.3800E-10  0.3770E-10  0.3640E-10  0.3410E-10  0.3030E-10  0.2620E-10  0.2380E-10
  0.1000E+13  0.1490E-11  0.1930E-11  0.2490E-11  0.5380E-11  0.1230E-10  0.1820E-10  0.1960E-10  0.1970E-10  0.1960E-10  0.1920E-10  0.1850E-10  0.1730E-10  0.1580E-10  0.1480E-10
  0.1000E+14  0.1310E-11  0.1560E-11  0.1810E-11  0.2320E-11  0.2910E-11  0.3180E-11  0.3240E-11  0.3240E-11  0.3250E-11  0.3240E-11  0.3220E-11  0.3190E-11  0.3140E-11  0.3100E-11
  0.1000E+15  0.2310E-12  0.2660E-12  0.2930E-12  0.3150E-12  0.3320E-12  0.3420E-12  0.3450E-12  0.3450E-12  0.3460E-12  0.3460E-12  0.3470E-12  0.3470E-12  0.3470E-12  0.3460E-12
  0.1000E+16  0.2490E-13  0.2840E-13  0.3110E-13  0.3260E-13  0.3370E-13  0.3450E-13  0.3470E-13  0.3480E-13  0.3490E-13  0.3490E-13  0.3490E-13  0.3500E-13  0.3500E-13  0.3500E-13
  0.1000E+17  0.2500E-14  0.2860E-14  0.3130E-14  0.3270E-14  0.3370E-14  0.3450E-14  0.3480E-14  0.3480E-14  0.3490E-14  0.3490E-14  0.3500E-14  0.3500E-14  0.3500E-14  0.3500E-14
WAVELENGTH(A)= 
  2676.170
 7 14 t 
excit   
    11.700     17.500     29.100     58.200    117.000    291.000    582.000    874.000   1170.000   1750.000   2910.000   5820.000  11700.000  17500.000 
  0.1000E+11  0.1840E-11  0.2170E-11  0.2570E-11  0.5580E-11  0.2070E-10  0.4930E-10  0.5980E-10  0.6130E-10  0.6080E-10  0.5870E-10  0.5450E-10  0.4730E-10  0.3970E-10  0.3530E-10
  0.1000E+12  0.2090E-11  0.2520E-11  0.3040E-11  0.6760E-11  0.2160E-10  0.3610E-10  0.3930E-10  0.3970E-10  0.3960E-10  0.3910E-10  0.3790E-10  0.3560E-10  0.3270E-10  0.3060E-10
  0.1000E+13  0.2030E-11  0.2400E-11  0.2780E-11  0.4060E-11  0.5150E-11  0.5240E-11  0.5230E-11  0.5230E-11  0.5230E-11  0.5240E-11  0.5260E-11  0.5280E-11  0.5300E-11  0.5310E-11
  0.1000E+14  0.4450E-12  0.4840E-12  0.5110E-12  0.5200E-12  0.5040E-12  0.4960E-12  0.4940E-12  0.4940E-12  0.4940E-12  0.4950E-12  0.4950E-12  0.4960E-12  0.4980E-12  0.4990E-12
  0.1000E+15  0.4770E-13  0.5010E-13  0.5130E-13  0.5060E-13  0.4940E-13  0.4900E-13  0.4890E-13  0.4890E-13  0.4890E-13  0.4890E-13  0.4890E-13  0.4890E-13  0.4900E-13  0.4900E-13
  0.1000E+16  0.4790E-14  0.5010E-14  0.5110E-14  0.5040E-14  0.4930E-14  0.4890E-14  0.4880E-14  0.4880E-14  0.4880E-14  0.4880E-14  0.4880E-14  0.4880E-14  0.4890E-14  0.4890E-14
  0.1000E+17  0.4800E-15  0.5010E-15  0.5110E-15  0.5040E-15  0.4930E-15  0.4890E-15  0.4880E-15  0.4880E-15  0.4880E-15  0.4880E-15  0.4880E-15  0.4880E-15  0.4890E-15  0.4890E-15
WAVELENGTH(A)= 
  2724.380
 7 14 t 
excit   
    11.700     17.500     29.100     58.200    117.000    291.000    582.000    874.000   1170.000   1750.000   2910.000   5820.000  11700.000  17500.000 
  0.1000E+11  0.8680E-11  0.1050E-10  0.1240E-10  0.1990E-10  0.5130E-10  0.1050E-09  0.1230E-09  0.1250E-09  0.1240E-09  0.1190E-09  0.1110E-09  0.9760E-10  0.8290E-10  0.7440E-10
  0.1000E+12  0.8160E-11  0.9800E-11  0.1160E-10  0.1830E-10  0.4000E-10  0.5890E-10  0.6260E-10  0.6300E-10  0.6290E-10  0.6220E-10  0.6070E-10  0.5770E-10  0.5370E-10  0.5090E-10
  0.1000E+13  0.4460E-11  0.5140E-11  0.5740E-11  0.6770E-11  0.7340E-11  0.7220E-11  0.7170E-11  0.7170E-11  0.7180E-11  0.7200E-11  0.7230E-11  0.7280E-11  0.7350E-11  0.7390E-11
  0.1000E+14  0.6350E-12  0.6800E-12  0.7070E-12  0.6960E-12  0.6750E-12  0.6670E-12  0.6660E-12  0.6660E-12  0.6660E-12  0.6670E-12  0.6670E-12  0.6680E-12  0.6710E-12  0.6720E-12
  0.1000E+15  0.6130E-13  0.6450E-13  0.6630E-13  0.6650E-13  0.6600E-13  0.6590E-13  0.6580E-13  0.6580E-13  0.6580E-13  0.6590E-13  0.6580E-13  0.6580E-13  0.6590E-13  0.6590E-13
  0.1000E+16  0.6080E-14  0.6390E-14  0.6560E-14  0.6610E-14  0.6590E-14  0.6580E-14  0.6570E-14  0.6570E-14  0.6570E-14  0.6580E-14  0.6570E-14  0.6570E-14  0.6580E-14  0.6580E-14
  0.1000E+17  0.6080E-15  0.6390E-15  0.6550E-15  0.6600E-15  0.6580E-15  0.6580E-15  0.6570E-15  0.6570E-15  0.6570E-15  0.6570E-15  0.6570E-15  0.6570E-15  0.6570E-15  0.6580E-15
WAVELENGTH(A)= 
  2783.400
 7 14 t 
excit   
    11.700     17.500     29.100     58.200    117.000    291.000    582.000    874.000   1170.000   1750.000   2910.000   5820.000  11700.000  17500.000 
  0.1000E+11  0.1520E-10  0.1840E-10  0.2190E-10  0.3780E-10  0.1070E-09  0.2240E-09  0.2640E-09  0.2690E-09  0.2670E-09  0.2580E-09  0.2410E-09  0.2110E-09  0.1790E-09  0.1610E-09
  0.1000E+12  0.1420E-10  0.1710E-10  0.2020E-10  0.3470E-10  0.8300E-10  0.1240E-09  0.1320E-09  0.1330E-09  0.1330E-09  0.1320E-09  0.1290E-09  0.1220E-09  0.1140E-09  0.1090E-09
  0.1000E+13  0.7710E-11  0.8830E-11  0.9890E-11  0.1300E-10  0.1560E-10  0.1580E-10  0.1580E-10  0.1580E-10  0.1580E-10  0.1590E-10  0.1590E-10  0.1600E-10  0.1600E-10  0.1610E-10
  0.1000E+14  0.1270E-11  0.1350E-11  0.1410E-11  0.1510E-11  0.1520E-11  0.1520E-11  0.1510E-11  0.1510E-11  0.1510E-11  0.1510E-11  0.1520E-11  0.1520E-11  0.1520E-11  0.1520E-11
  0.1000E+15  0.1380E-12  0.1450E-12  0.1490E-12  0.1510E-12  0.1500E-12  0.1500E-12  0.1500E-12  0.1500E-12  0.1500E-12  0.1500E-12  0.1500E-12  0.1500E-12  0.1500E-12  0.1500E-12
  0.1000E+16  0.1400E-13  0.1460E-13  0.1500E-13  0.1500E-13  0.1500E-13  0.1500E-13  0.1500E-13  0.1500E-13  0.1500E-13  0.1500E-13  0.1500E-13  0.1500E-13  0.1500E-13  0.1500E-13
  0.1000E+17  0.1400E-14  0.1470E-14  0.1500E-14  0.1500E-14  0.1500E-14  0.1500E-14  0.1500E-14  0.1500E-14  0.1500E-14  0.1500E-14  0.1500E-14  0.1500E-14  0.1500E-14  0.1500E-14
WAVELENGTH(A)= 
  2855.930
 7 14 t 
excit   
    11.700     17.500     29.100     58.200    117.000    291.000    582.000    874.000   1170.000   1750.000   2910.000   5820.000  11700.000  17500.000 
  0.1000E+11  0.2370E-11  0.2800E-11  0.3310E-11  0.7200E-11  0.2670E-10  0.6350E-10  0.7700E-10  0.7890E-10  0.7830E-10  0.7560E-10  0.7030E-10  0.6100E-10  0.5120E-10  0.4550E-10
  0.1000E+12  0.2690E-11  0.3240E-11  0.3910E-11  0.8710E-11  0.2780E-10  0.4650E-10  0.5060E-10  0.5110E-10  0.5100E-10  0.5030E-10  0.4890E-10  0.4590E-10  0.4210E-10  0.3950E-10
  0.1000E+13  0.2610E-11  0.3090E-11  0.3580E-11  0.5230E-11  0.6640E-11  0.6750E-11  0.6730E-11  0.6740E-11  0.6750E-11  0.6760E-11  0.6770E-11  0.6800E-11  0.6830E-11  0.6840E-11
  0.1000E+14  0.5740E-12  0.6240E-12  0.6590E-12  0.6700E-12  0.6490E-12  0.6390E-12  0.6370E-12  0.6370E-12  0.6370E-12  0.6370E-12  0.6380E-12  0.6400E-12  0.6420E-12  0.6430E-12
  0.1000E+15  0.6150E-13  0.6460E-13  0.6620E-13  0.6530E-13  0.6370E-13  0.6310E-13  0.6300E-13  0.6300E-13  0.6300E-13  0.6300E-13  0.6300E-13  0.6310E-13  0.6310E-13  0.6320E-13
  0.1000E+16  0.6180E-14  0.6460E-14  0.6590E-14  0.6500E-14  0.6350E-14  0.6300E-14  0.6290E-14  0.6290E-14  0.6290E-14  0.6290E-14  0.6290E-14  0.6300E-14  0.6300E-14  0.6300E-14
  0.1000E+17  0.6180E-15  0.6460E-15  0.6590E-15  0.6490E-15  0.6350E-15  0.6300E-15  0.6290E-15  0.6290E-15  0.6290E-15  0.6290E-15  0.6290E-15  0.6290E-15  0.6300E-15  0.6300E-15
WAVELENGTH(A)= 
  2947.020
 7 14 t 
excit   
    11.700     17.500     29.100     58.200    117.000    291.000    582.000    874.000   1170.000   1750.000   2910.000   5820.000  11700.000  17500.000 
  0.1000E+11  0.6840E-11  0.8250E-11  0.9790E-11  0.1570E-10  0.4040E-10  0.8250E-10  0.9670E-10  0.9840E-10  0.9740E-10  0.9410E-10  0.8780E-10  0.7690E-10  0.6530E-10  0.5860E-10
  0.1000E+12  0.6430E-11  0.7730E-11  0.9130E-11  0.1440E-10  0.3150E-10  0.4640E-10  0.4930E-10  0.4970E-10  0.4950E-10  0.4900E-10  0.4780E-10  0.4550E-10  0.4230E-10  0.4010E-10
  0.1000E+13  0.3520E-11  0.4050E-11  0.4530E-11  0.5340E-11  0.5790E-11  0.5690E-11  0.5650E-11  0.5650E-11  0.5660E-11  0.5680E-11  0.5700E-11  0.5740E-11  0.5790E-11  0.5820E-11
  0.1000E+14  0.5000E-12  0.5360E-12  0.5570E-12  0.5490E-12  0.5320E-12  0.5260E-12  0.5250E-12  0.5250E-12  0.5250E-12  0.5250E-12  0.5260E-12  0.5270E-12  0.5290E-12  0.5300E-12
  0.1000E+15  0.4830E-13  0.5090E-13  0.5220E-13  0.5240E-13  0.5200E-13  0.5190E-13  0.5190E-13  0.5190E-13  0.5190E-13  0.5190E-13  0.5190E-13  0.5190E-13  0.5190E-13  0.5190E-13
  0.1000E+16  0.4790E-14  0.5040E-14  0.5170E-14  0.5210E-14  0.5190E-14  0.5180E-14  0.5180E-14  0.5180E-14  0.5180E-14  0.5180E-14  0.5180E-14  0.5180E-14  0.5180E-14  0.5180E-14
  0.1000E+17  0.4790E-15  0.5030E-15  0.5160E-15  0.5200E-15  0.5190E-15  0.5180E-15  0.5180E-15  0.5180E-15  0.5180E-15  0.5180E-15  0.5180E-15  0.5180E-15  0.5180E-15  0.5180E-15
WAVELENGTH(A)= 
  3016.200
 7 14 t 
excit   
    11.700     17.500     29.100     58.200    117.000    291.000    582.000    874.000   1170.000   1750.000   2910.000   5820.000  11700.000  17500.000 
  0.1000E+11  0.2060E-11  0.2490E-11  0.2960E-11  0.5120E-11  0.1440E-10  0.3030E-10  0.3570E-10  0.3640E-10  0.3610E-10  0.3490E-10  0.3260E-10  0.2860E-10  0.2430E-10  0.2180E-10
  0.1000E+12  0.1920E-11  0.2310E-11  0.2730E-11  0.4700E-11  0.1120E-10  0.1680E-10  0.1790E-10  0.1800E-10  0.1800E-10  0.1780E-10  0.1740E-10  0.1660E-10  0.1550E-10  0.1470E-10
  0.1000E+13  0.1040E-11  0.1190E-11  0.1340E-11  0.1770E-11  0.2110E-11  0.2140E-11  0.2140E-11  0.2140E-11  0.2140E-11  0.2150E-11  0.2150E-11  0.2160E-11  0.2170E-11  0.2170E-11
  0.1000E+14  0.1710E-12  0.1830E-12  0.1910E-12  0.2040E-12  0.2060E-12  0.2050E-12  0.2050E-12  0.2050E-12  0.2050E-12  0.2050E-12  0.2050E-12  0.2050E-12  0.2060E-12  0.2060E-12
  0.1000E+15  0.1870E-13  0.1960E-13  0.2010E-13  0.2040E-13  0.2030E-13  0.2030E-13  0.2030E-13  0.2030E-13  0.2030E-13  0.2030E-13  0.2030E-13  0.2030E-13  0.2030E-13  0.2030E-13
  0.1000E+16  0.1890E-14  0.1980E-14  0.2030E-14  0.2040E-14  0.2030E-14  0.2030E-14  0.2030E-14  0.2030E-14  0.2030E-14  0.2030E-14  0.2030E-14  0.2030E-14  0.2030E-14  0.2030E-14
  0.1000E+17  0.1890E-15  0.1980E-15  0.2030E-15  0.2040E-15  0.2030E-15  0.2030E-15  0.2030E-15  0.2030E-15  0.2030E-15  0.2030E-15  0.2030E-15  0.2030E-15  0.2030E-15  0.2030E-15
WAVELENGTH(A)= 
  3299.460
 7 14 t 
excit   
    11.700     17.500     29.100     58.200    117.000    291.000    582.000    874.000   1170.000   1750.000   2910.000   5820.000  11700.000  17500.000 
  0.1000E+11  0.4650E-12  0.5850E-12  0.7470E-12  0.2590E-11  0.1100E-10  0.2470E-10  0.2930E-10  0.3010E-10  0.2990E-10  0.2910E-10  0.2740E-10  0.2430E-10  0.2090E-10  0.1890E-10
  0.1000E+12  0.4920E-12  0.6180E-12  0.7860E-12  0.2460E-11  0.8650E-11  0.1580E-10  0.1780E-10  0.1810E-10  0.1800E-10  0.1770E-10  0.1700E-10  0.1570E-10  0.1420E-10  0.1320E-10
  0.1000E+13  0.5350E-12  0.6550E-12  0.7930E-12  0.1610E-11  0.2960E-11  0.3560E-11  0.3670E-11  0.3680E-11  0.3690E-11  0.3680E-11  0.3660E-11  0.3600E-11  0.3530E-11  0.3470E-11
  0.1000E+14  0.2180E-12  0.2500E-12  0.2780E-12  0.3390E-12  0.3840E-12  0.3990E-12  0.4020E-12  0.4030E-12  0.4030E-12  0.4030E-12  0.4030E-12  0.4030E-12  0.4030E-12  0.4020E-12
  0.1000E+15  0.3000E-13  0.3350E-13  0.3610E-13  0.3800E-13  0.3950E-13  0.4030E-13  0.4050E-13  0.4060E-13  0.4060E-13  0.4070E-13  0.4070E-13  0.4070E-13  0.4070E-13  0.4070E-13
  0.1000E+16  0.3120E-14  0.3470E-14  0.3720E-14  0.3850E-14  0.3960E-14  0.4030E-14  0.4050E-14  0.4060E-14  0.4060E-14  0.4070E-14  0.4070E-14  0.4070E-14  0.4080E-14  0.4070E-14
  0.1000E+17  0.3130E-15  0.3480E-15  0.3730E-15  0.3860E-15  0.3960E-15  0.4030E-15  0.4050E-15  0.4060E-15  0.4060E-15  0.4070E-15  0.4070E-15  0.4070E-15  0.4080E-15  0.4070E-15
WAVELENGTH(A)= 
  3357.170
 7 14 t 
excit   
    11.700     17.500     29.100     58.200    117.000    291.000    582.000    874.000   1170.000   1750.000   2910.000   5820.000  11700.000  17500.000 
  0.1000E+11  0.1390E-10  0.1660E-10  0.1980E-10  0.3890E-10  0.1220E-09  0.2580E-09  0.3040E-09  0.3100E-09  0.3080E-09  0.2980E-09  0.2790E-09  0.2470E-09  0.2110E-09  0.1900E-09
  0.1000E+12  0.1330E-10  0.1570E-10  0.1860E-10  0.3560E-10  0.9210E-10  0.1430E-09  0.1530E-09  0.1550E-09  0.1540E-09  0.1520E-09  0.1480E-09  0.1400E-09  0.1300E-09  0.1230E-09
  0.1000E+13  0.8810E-11  0.9780E-11  0.1080E-10  0.1540E-10  0.2000E-10  0.2050E-10  0.2050E-10  0.2050E-10  0.2050E-10  0.2050E-10  0.2050E-10  0.2050E-10  0.2040E-10  0.2040E-10
  0.1000E+14  0.2090E-11  0.2060E-11  0.2020E-11  0.2060E-11  0.2050E-11  0.2020E-11  0.2010E-11  0.2000E-11  0.2000E-11  0.2000E-11  0.2000E-11  0.2000E-11  0.1990E-11  0.2000E-11
  0.1000E+15  0.2430E-12  0.2280E-12  0.2140E-12  0.2070E-12  0.2040E-12  0.2010E-12  0.2000E-12  0.1990E-12  0.1990E-12  0.1980E-12  0.1980E-12  0.1980E-12  0.1980E-12  0.1980E-12
  0.1000E+16  0.2460E-13  0.2290E-13  0.2140E-13  0.2070E-13  0.2040E-13  0.2000E-13  0.1990E-13  0.1990E-13  0.1990E-13  0.1980E-13  0.1980E-13  0.1980E-13  0.1970E-13  0.1970E-13
  0.1000E+17  0.2460E-14  0.2300E-14  0.2140E-14  0.2070E-14  0.2040E-14  0.2000E-14  0.1990E-14  0.1990E-14  0.1990E-14  0.1980E-14  0.1980E-14  0.1980E-14  0.1970E-14  0.1970E-14
WAVELENGTH(A)= 
  3701.780
 7 14 t 
excit   
    11.700     17.500     29.100     58.200    117.000    291.000    582.000    874.000   1170.000   1750.000   2910.000   5820.000  11700.000  17500.000 
  0.1000E+11  0.3000E-10  0.3560E-10  0.4200E-10  0.7810E-10  0.2170E-09  0.3930E-09  0.4410E-09  0.4460E-09  0.4440E-09  0.4340E-09  0.4150E-09  0.3780E-09  0.3360E-09  0.3100E-09
  0.1000E+12  0.2520E-10  0.2920E-10  0.3350E-10  0.5180E-10  0.7910E-10  0.8100E-10  0.7950E-10  0.7920E-10  0.7930E-10  0.7960E-10  0.8020E-10  0.8110E-10  0.8170E-10  0.8180E-10
  0.1000E+13  0.8130E-11  0.8500E-11  0.8700E-11  0.8030E-11  0.6130E-11  0.5230E-11  0.5070E-11  0.5040E-11  0.5050E-11  0.5070E-11  0.5120E-11  0.5230E-11  0.5380E-11  0.5500E-11
  0.1000E+14  0.6740E-12  0.6400E-12  0.6020E-12  0.5180E-12  0.4550E-12  0.4330E-12  0.4270E-12  0.4260E-12  0.4260E-12  0.4260E-12  0.4260E-12  0.4270E-12  0.4290E-12  0.4310E-12
  0.1000E+15  0.5710E-13  0.5280E-13  0.4890E-13  0.4540E-13  0.4330E-13  0.4220E-13  0.4180E-13  0.4170E-13  0.4160E-13  0.4160E-13  0.4160E-13  0.4150E-13  0.4150E-13  0.4160E-13
  0.1000E+16  0.5570E-14  0.5140E-14  0.4760E-14  0.4470E-14  0.4300E-14  0.4210E-14  0.4170E-14  0.4160E-14  0.4160E-14  0.4150E-14  0.4150E-14  0.4140E-14  0.4140E-14  0.4140E-14
  0.1000E+17  0.5560E-15  0.5130E-15  0.4740E-15  0.4460E-15  0.4300E-15  0.4200E-15  0.4170E-15  0.4160E-15  0.4150E-15  0.4150E-15  0.4140E-15  0.4140E-15  0.4140E-15  0.4140E-15
WAVELENGTH(A)= 
  4069.330
 7 14 t 
excit   
    11.700     17.500     29.100     58.200    117.000    291.000    582.000    874.000   1170.000   1750.000   2910.000   5820.000  11700.000  17500.000 
  0.1000E+11  0.1030E-11  0.1220E-11  0.1440E-11  0.2720E-11  0.9150E-11  0.2220E-10  0.2710E-10  0.2780E-10  0.2750E-10  0.2640E-10  0.2430E-10  0.2080E-10  0.1720E-10  0.1520E-10
  0.1000E+12  0.1290E-11  0.1600E-11  0.1970E-11  0.3950E-11  0.1230E-10  0.2220E-10  0.2470E-10  0.2500E-10  0.2490E-10  0.2440E-10  0.2340E-10  0.2150E-10  0.1920E-10  0.1760E-10
  0.1000E+13  0.1380E-11  0.1740E-11  0.2100E-11  0.2950E-11  0.3840E-11  0.4030E-11  0.4050E-11  0.4060E-11  0.4060E-11  0.4070E-11  0.4080E-11  0.4080E-11  0.4070E-11  0.4060E-11
  0.1000E+14  0.2840E-12  0.3350E-12  0.3780E-12  0.3970E-12  0.3880E-12  0.3840E-12  0.3850E-12  0.3850E-12  0.3850E-12  0.3860E-12  0.3870E-12  0.3880E-12  0.3900E-12  0.3910E-12
  0.1000E+15  0.2950E-13  0.3370E-13  0.3700E-13  0.3820E-13  0.3780E-13  0.3790E-13  0.3790E-13  0.3800E-13  0.3800E-13  0.3800E-13  0.3810E-13  0.3810E-13  0.3820E-13  0.3830E-13
  0.1000E+16  0.2950E-14  0.3360E-14  0.3670E-14  0.3800E-14  0.3770E-14  0.3780E-14  0.3790E-14  0.3790E-14  0.3790E-14  0.3800E-14  0.3800E-14  0.3810E-14  0.3810E-14  0.3820E-14
  0.1000E+17  0.2950E-15  0.3360E-15  0.3670E-15  0.3790E-15  0.3770E-15  0.3780E-15  0.3790E-15  0.3790E-15  0.3790E-15  0.3800E-15  0.3800E-15  0.3810E-15  0.3810E-15  0.3810E-15
WAVELENGTH(A)= 
  4369.980
 7 14 t 
excit   
    11.700     17.500     29.100     58.200    117.000    291.000    582.000    874.000   1170.000   1750.000   2910.000   5820.000  11700.000  17500.000 
  0.1000E+11  0.2520E-11  0.3000E-11  0.3540E-11  0.6670E-11  0.2240E-10  0.5440E-10  0.6650E-10  0.6810E-10  0.6740E-10  0.6470E-10  0.5960E-10  0.5110E-10  0.4220E-10  0.3720E-10
  0.1000E+12  0.3160E-11  0.3930E-11  0.4830E-11  0.9680E-11  0.3010E-10  0.5460E-10  0.6060E-10  0.6140E-10  0.6110E-10  0.5990E-10  0.5740E-10  0.5270E-10  0.4700E-10  0.4330E-10
  0.1000E+13  0.3400E-11  0.4260E-11  0.5160E-11  0.7250E-11  0.9420E-11  0.9890E-11  0.9940E-11  0.9960E-11  0.9960E-11  0.9980E-11  0.1000E-10  0.1000E-10  0.9990E-11  0.9950E-11
  0.1000E+14  0.6960E-12  0.8220E-12  0.9280E-12  0.9740E-12  0.9510E-12  0.9430E-12  0.9440E-12  0.9450E-12  0.9450E-12  0.9470E-12  0.9490E-12  0.9520E-12  0.9560E-12  0.9590E-12
  0.1000E+15  0.7220E-13  0.8280E-13  0.9090E-13  0.9380E-13  0.9280E-13  0.9290E-13  0.9310E-13  0.9320E-13  0.9320E-13  0.9330E-13  0.9340E-13  0.9360E-13  0.9370E-13  0.9380E-13
  0.1000E+16  0.7230E-14  0.8240E-14  0.9020E-14  0.9310E-14  0.9250E-14  0.9270E-14  0.9290E-14  0.9310E-14  0.9310E-14  0.9320E-14  0.9330E-14  0.9340E-14  0.9350E-14  0.9360E-14
  0.1000E+17  0.7230E-15  0.8240E-15  0.9010E-15  0.9310E-15  0.9240E-15  0.9270E-15  0.9290E-15  0.9310E-15  0.9310E-15  0.9320E-15  0.9320E-15  0.9340E-15  0.9350E-15  0.9360E-15
WAVELENGTH(A)= 
  6327.350
 7 14 t 
excit   
    11.700     17.500     29.100     58.200    117.000    291.000    582.000    874.000   1170.000   1750.000   2910.000   5820.000  11700.000  17500.000 
  0.1000E+11  0.1720E-11  0.2160E-11  0.2760E-11  0.9560E-11  0.4070E-10  0.9110E-10  0.1080E-09  0.1110E-09  0.1100E-09  0.1070E-09  0.1010E-09  0.8970E-10  0.7730E-10  0.6990E-10
  0.1000E+12  0.1810E-11  0.2280E-11  0.2900E-11  0.9070E-11  0.3200E-10  0.5850E-10  0.6570E-10  0.6680E-10  0.6660E-10  0.6540E-10  0.6290E-10  0.5820E-10  0.5240E-10  0.4880E-10
  0.1000E+13  0.1980E-11  0.2420E-11  0.2930E-11  0.5930E-11  0.1090E-10  0.1310E-10  0.1350E-10  0.1360E-10  0.1360E-10  0.1360E-10  0.1350E-10  0.1330E-10  0.1300E-10  0.1280E-10
  0.1000E+14  0.8050E-12  0.9240E-12  0.1030E-11  0.1250E-11  0.1420E-11  0.1470E-11  0.1480E-11  0.1490E-11  0.1490E-11  0.1490E-11  0.1490E-11  0.1490E-11  0.1490E-11  0.1480E-11
  0.1000E+15  0.1110E-12  0.1240E-12  0.1330E-12  0.1400E-12  0.1460E-12  0.1490E-12  0.1500E-12  0.1500E-12  0.1500E-12  0.1500E-12  0.1500E-12  0.1500E-12  0.1500E-12  0.1500E-12
  0.1000E+16  0.1150E-13  0.1280E-13  0.1370E-13  0.1420E-13  0.1460E-13  0.1490E-13  0.1500E-13  0.1500E-13  0.1500E-13  0.1500E-13  0.1500E-13  0.1500E-13  0.1500E-13  0.1500E-13
  0.1000E+17  0.1160E-14  0.1290E-14  0.1380E-14  0.1420E-14  0.1460E-14  0.1490E-14  0.1500E-14  0.1500E-14  0.1500E-14  0.1500E-14  0.1500E-14  0.1500E-14  0.1510E-14  0.1500E-14
WAVELENGTH(A)= 
  6894.840
 7 14 t 
excit   
    11.700     17.500     29.100     58.200    117.000    291.000    582.000    874.000   1170.000   1750.000   2910.000   5820.000  11700.000  17500.000 
  0.1000E+11  0.2380E-11  0.2870E-11  0.3410E-11  0.5480E-11  0.1410E-10  0.2880E-10  0.3370E-10  0.3430E-10  0.3400E-10  0.3280E-10  0.3060E-10  0.2680E-10  0.2280E-10  0.2040E-10
  0.1000E+12  0.2240E-11  0.2690E-11  0.3180E-11  0.5030E-11  0.1100E-10  0.1620E-10  0.1720E-10  0.1730E-10  0.1730E-10  0.1710E-10  0.1670E-10  0.1580E-10  0.1470E-10  0.1400E-10
  0.1000E+13  0.1230E-11  0.1410E-11  0.1580E-11  0.1860E-11  0.2020E-11  0.1980E-11  0.1970E-11  0.1970E-11  0.1970E-11  0.1980E-11  0.1990E-11  0.2000E-11  0.2020E-11  0.2030E-11
  0.1000E+14  0.1740E-12  0.1870E-12  0.1940E-12  0.1910E-12  0.1850E-12  0.1830E-12  0.1830E-12  0.1830E-12  0.1830E-12  0.1830E-12  0.1830E-12  0.1840E-12  0.1840E-12  0.1850E-12
  0.1000E+15  0.1680E-13  0.1770E-13  0.1820E-13  0.1830E-13  0.1810E-13  0.1810E-13  0.1810E-13  0.1810E-13  0.1810E-13  0.1810E-13  0.1810E-13  0.1810E-13  0.1810E-13  0.1810E-13
  0.1000E+16  0.1670E-14  0.1760E-14  0.1800E-14  0.1810E-14  0.1810E-14  0.1810E-14  0.1810E-14  0.1810E-14  0.1800E-14  0.1810E-14  0.1800E-14  0.1800E-14  0.1810E-14  0.1810E-14
  0.1000E+17  0.1670E-15  0.1750E-15  0.1800E-15  0.1810E-15  0.1810E-15  0.1810E-15  0.1800E-15  0.1800E-15  0.1800E-15  0.1810E-15  0.1800E-15  0.1800E-15  0.1810E-15  0.1810E-15
WAVELENGTH(A)= 
  7753.920
 7 14 t 
excit   
    11.700     17.500     29.100     58.200    117.000    291.000    582.000    874.000   1170.000   1750.000   2910.000   5820.000  11700.000  17500.000 
  0.1000E+11  0.2340E-11  0.2970E-11  0.3720E-11  0.7910E-11  0.2570E-10  0.5490E-10  0.6490E-10  0.6620E-10  0.6580E-10  0.6370E-10  0.5970E-10  0.5270E-10  0.4520E-10  0.4070E-10
  0.1000E+12  0.2250E-11  0.2840E-11  0.3540E-11  0.7300E-11  0.2050E-10  0.3480E-10  0.3830E-10  0.3880E-10  0.3870E-10  0.3810E-10  0.3690E-10  0.3440E-10  0.3130E-10  0.2920E-10
  0.1000E+13  0.1610E-11  0.1950E-11  0.2320E-11  0.3720E-11  0.5500E-11  0.6060E-11  0.6150E-11  0.6170E-11  0.6170E-11  0.6170E-11  0.6160E-11  0.6130E-11  0.6080E-11  0.6040E-11
  0.1000E+14  0.4100E-12  0.4650E-12  0.5090E-12  0.5760E-12  0.6130E-12  0.6230E-12  0.6250E-12  0.6260E-12  0.6260E-12  0.6270E-12  0.6280E-12  0.6280E-12  0.6280E-12  0.6290E-12
  0.1000E+15  0.4950E-13  0.5450E-13  0.5800E-13  0.6030E-13  0.6150E-13  0.6230E-13  0.6250E-13  0.6260E-13  0.6260E-13  0.6270E-13  0.6270E-13  0.6270E-13  0.6270E-13  0.6270E-13
  0.1000E+16  0.5050E-14  0.5550E-14  0.5890E-14  0.6050E-14  0.6160E-14  0.6230E-14  0.6250E-14  0.6250E-14  0.6260E-14  0.6260E-14  0.6270E-14  0.6270E-14  0.6270E-14  0.6270E-14
  0.1000E+17  0.5060E-15  0.5560E-15  0.5890E-15  0.6050E-15  0.6160E-15  0.6230E-15  0.6250E-15  0.6250E-15  0.6250E-15  0.6260E-15  0.6270E-15  0.6270E-15  0.6270E-15  0.6270E-15
WAVELENGTH(A)= 
  8251.910
 7 14 t 
excit   
    11.700     17.500     29.100     58.200    117.000    291.000    582.000    874.000   1170.000   1750.000   2910.000   5820.000  11700.000  17500.000 
  0.1000E+11  0.2430E-11  0.3090E-11  0.3870E-11  0.8210E-11  0.2670E-10  0.5710E-10  0.6740E-10  0.6880E-10  0.6830E-10  0.6620E-10  0.6200E-10  0.5480E-10  0.4690E-10  0.4230E-10
  0.1000E+12  0.2340E-11  0.2950E-11  0.3680E-11  0.7580E-11  0.2130E-10  0.3620E-10  0.3980E-10  0.4030E-10  0.4020E-10  0.3960E-10  0.3830E-10  0.3570E-10  0.3250E-10  0.3040E-10
  0.1000E+13  0.1670E-11  0.2030E-11  0.2410E-11  0.3860E-11  0.5710E-11  0.6300E-11  0.6380E-11  0.6400E-11  0.6410E-11  0.6410E-11  0.6400E-11  0.6370E-11  0.6320E-11  0.6270E-11
  0.1000E+14  0.4260E-12  0.4820E-12  0.5290E-12  0.5980E-12  0.6360E-12  0.6470E-12  0.6500E-12  0.6500E-12  0.6510E-12  0.6510E-12  0.6520E-12  0.6520E-12  0.6530E-12  0.6530E-12
  0.1000E+15  0.5140E-13  0.5660E-13  0.6030E-13  0.6260E-13  0.6390E-13  0.6470E-13  0.6490E-13  0.6500E-13  0.6500E-13  0.6510E-13  0.6510E-13  0.6510E-13  0.6510E-13  0.6510E-13
  0.1000E+16  0.5250E-14  0.5760E-14  0.6110E-14  0.6280E-14  0.6390E-14  0.6470E-14  0.6490E-14  0.6500E-14  0.6500E-14  0.6500E-14  0.6510E-14  0.6510E-14  0.6510E-14  0.6510E-14
  0.1000E+17  0.5260E-15  0.5770E-15  0.6120E-15  0.6290E-15  0.6390E-15  0.6470E-15  0.6490E-15  0.6490E-15  0.6500E-15  0.6500E-15  0.6510E-15  0.6510E-15  0.6510E-15  0.6510E-15
